# File created by shivutils (I.Shivvers)
# 
# wl(A)   flm    er(optional)
3438.00   0.50145210   0.08515033
3440.00   0.12281256   0.08306173
3442.00   0.20654889   0.08508852
3444.00   0.38547658   0.08740879
3446.00   0.40834395   0.08828743
3448.00   0.42724195   0.09153365
3450.00   0.18069276   0.09257171
3452.00   0.10052554   0.09380397
3454.00   0.21686638   0.09486173
3456.00   0.00321652   0.09369528
3458.00   0.12034239   0.09097081
3460.00   0.13578253   0.09314824
3462.00   0.24203962   0.09210490
3464.00   0.16714253   0.09110850
3466.00   0.29246293   0.09154355
3468.00   0.08729868   0.09010922
3470.00   0.21021192   0.09098929
3472.00   0.26409563   0.08854938
3474.00   0.27539148   0.08819097
3476.00   0.02900837   0.08997388
3478.00   -0.01235445   0.09546962
3480.00   0.15786147   0.10222903
3482.00   0.33159087   0.09962166
3484.00   0.07265738   0.09585469
3486.00   0.19594320   0.09627376
3488.00   0.51945772   0.09662294
3490.00   0.11110426   0.09304194
3492.00   0.44716357   0.09262669
3494.00   0.22333892   0.09153543
3496.00   0.17952155   0.09215642
3498.00   0.25358138   0.09018594
3500.00   0.18082726   0.09081168
3502.00   0.20414541   0.09069188
3504.00   0.54114522   0.09206827
3506.00   0.43473267   0.08999863
3508.00   0.33767624   0.09060762
3510.00   0.33497117   0.09166885
3512.00   0.54905021   0.09181431
3514.00   0.37326428   0.08882676
3516.00   0.42488018   0.09587542
3518.00   0.31839428   0.08715705
3520.00   0.31269935   0.08582689
3522.00   0.31232827   0.08618447
3524.00   0.25931309   0.08374766
3526.00   0.03559860   0.08149197
3528.00   0.08165144   0.08114586
3530.00   0.25857564   0.08261163
3532.00   0.30251707   0.08218465
3534.00   0.30919982   0.08158502
3536.00   0.20523014   0.08110721
3538.00   0.06771053   0.08308270
3540.00   -0.05520862   0.08634514
3542.00   0.27691510   0.09200685
3544.00   0.16055385   0.09091381
3546.00   0.17841357   0.08895843
3548.00   0.21515979   0.08676828
3550.00   0.25165912   0.08442102
3552.00   0.35264076   0.08735092
3554.00   0.11356727   0.08470029
3556.00   0.20344070   0.08412118
3558.00   0.38408524   0.08504133
3560.00   0.34525239   0.08223400
3562.00   -0.02117250   0.08110104
3564.00   0.19650190   0.07760780
3566.00   0.22735426   0.07804590
3568.00   0.36053774   0.07705447
3570.00   0.32920413   0.07724028
3572.00   0.21184000   0.07602029
3574.00   0.18948123   0.07542655
3576.00   0.12685332   0.07489642
3578.00   0.27748284   0.07358786
3580.00   0.22509778   0.07238706
3582.00   0.02529248   0.07049307
3584.00   0.03584853   0.06811803
3586.00   0.09447873   0.06677850
3588.00   0.35056229   0.06998942
3590.00   0.07398895   0.07084304
3592.00   0.21394854   0.06821305
3594.00   0.04037208   0.06850292
3596.00   0.11910867   0.06652624
3598.00   0.06567812   0.06405906
3600.00   0.21815169   0.06503483
3602.00   -0.03123918   0.06410733
3604.00   0.10902611   0.06263592
3606.00   0.14398322   0.06473841
3608.00   0.33879152   0.06370608
3610.00   0.25463883   0.06432880
3612.00   0.11179400   0.06796896
3614.00   0.07267301   0.07025098
3616.00   0.28675289   0.06980915
3618.00   0.22639095   0.06740139
3620.00   0.23252136   0.06617445
3622.00   0.26642083   0.06619948
3624.00   0.20621641   0.06507608
3626.00   0.41908919   0.06495307
3628.00   0.30453030   0.06642132
3630.00   0.27911810   0.06966101
3632.00   0.27349997   0.06946226
3634.00   0.24265927   0.06761503
3636.00   0.30208232   0.06848766
3638.00   0.23786158   0.06755548
3640.00   0.32357483   0.06902736
3642.00   0.31465872   0.07149326
3644.00   0.25979808   0.07228514
3646.00   0.29022356   0.07505084
3648.00   0.29113671   0.09894337
3650.00   0.09028910   0.10859101
3652.00   -0.04919366   0.09551437
3654.00   0.42209240   0.08991793
3656.00   0.30710856   0.07824297
3658.00   0.17793645   0.06737023
3660.00   0.26657671   0.07121123
3662.00   0.27679299   0.07921411
3664.00   0.33557489   0.07466210
3666.00   0.25499081   0.06117561
3668.00   0.24394312   0.05693938
3670.00   0.30038316   0.05633466
3672.00   0.20629644   0.05519709
3674.00   0.22224819   0.05453432
3676.00   0.24195221   0.05281343
3678.00   0.19436280   0.05230429
3680.00   0.33217591   0.05259939
3682.00   0.34913439   0.05202701
3684.00   0.18174428   0.05011866
3686.00   0.16071257   0.04973865
3688.00   0.12693328   0.04978268
3690.00   0.25115235   0.05185598
3692.00   0.24939646   0.05076807
3694.00   0.26787832   0.04970216
3696.00   0.14865226   0.05017433
3698.00   0.20594575   0.05120953
3700.00   0.17706935   0.05060587
3702.00   0.24678600   0.05143660
3704.00   0.17967700   0.05034380
3706.00   0.27278380   0.05016152
3708.00   0.20280366   0.04884530
3710.00   0.32152550   0.05012066
3712.00   0.29287172   0.04908133
3714.00   0.26693162   0.04808572
3716.00   0.25661550   0.04835901
3718.00   0.11598620   0.04736661
3720.00   0.07986295   0.04837875
3722.00   0.12041732   0.04569830
3724.00   0.21580628   0.04668102
3726.00   0.22221731   0.04691735
3728.00   0.04979486   0.04722973
3730.00   0.20291937   0.04904794
3732.00   0.17279797   0.05004791
3734.00   0.14989647   0.04709918
3736.00   0.22781459   0.04742250
3738.00   0.25818322   0.04931878
3740.00   0.60976366   0.06057034
3742.00   1.55530461   0.07653730
3744.00   2.28400564   0.08685584
3746.00   1.64152611   0.07649696
3748.00   0.60503389   0.05313772
3750.00   0.36820335   0.04612110
3752.00   0.26576943   0.04426376
3754.00   0.29744005   0.04551717
3756.00   0.33800439   0.04626927
3758.00   0.34589581   0.04576950
3760.00   0.39879563   0.04552720
3762.00   0.34306926   0.04426468
3764.00   0.36664214   0.04386913
3766.00   0.35056507   0.04137973
3768.00   0.35334314   0.04248080
3770.00   0.39374356   0.04423043
3772.00   0.39921929   0.04488451
3774.00   0.34595734   0.04342742
3776.00   0.33048746   0.04348667
3778.00   0.24079515   0.04222533
3780.00   0.19869617   0.04149766
3782.00   0.29167350   0.04237517
3784.00   0.30551396   0.04098450
3786.00   0.41935689   0.04159604
3788.00   0.32978623   0.04073724
3790.00   0.20502330   0.04132271
3792.00   0.31886902   0.04227909
3794.00   0.28665012   0.04212218
3796.00   0.17556101   0.04145583
3798.00   0.21999491   0.04098784
3800.00   0.29742691   0.04218008
3802.00   0.19542962   0.04182266
3804.00   0.22924361   0.04115152
3806.00   0.21660186   0.04037616
3808.00   0.10884182   0.03966267
3810.00   0.21431406   0.03971103
3812.00   0.19927364   0.03908384
3814.00   0.41153044   0.04107321
3816.00   0.21977986   0.03983156
3818.00   0.28144588   0.04012981
3820.00   0.24261133   0.04065811
3822.00   0.32236555   0.04085405
3824.00   0.29805436   0.04139971
3826.00   0.18214997   0.04082265
3828.00   0.26029806   0.04320217
3830.00   0.35233899   0.04424866
3832.00   0.26426770   0.04225706
3834.00   0.20618727   0.04133215
3836.00   0.06823188   0.04034411
3838.00   0.27462082   0.04092905
3840.00   0.20039856   0.03994092
3842.00   0.19396497   0.03920908
3844.00   0.24771833   0.03880495
3846.00   0.30466207   0.03845634
3848.00   0.30526422   0.03732845
3850.00   0.22048248   0.03646501
3852.00   0.27402410   0.03634178
3854.00   0.13921406   0.03537072
3856.00   0.05038061   0.03467768
3858.00   0.08559576   0.03464710
3860.00   0.06629488   0.03542212
3862.00   0.14005746   0.03607705
3864.00   0.10554186   0.03657137
3866.00   0.17738186   0.03644586
3868.00   0.09474798   0.03571429
3870.00   0.14906045   0.03561953
3872.00   0.10670588   0.03661099
3874.00   0.07898949   0.03734957
3876.00   0.04675320   0.03653355
3878.00   0.17071760   0.03602078
3880.00   0.08017603   0.03572623
3882.00   0.15124737   0.03525640
3884.00   0.18799009   0.03649625
3886.00   0.20289205   0.03710817
3888.00   0.18695867   0.03534276
3890.00   0.01317986   0.03328208
3892.00   0.08561732   0.03412510
3894.00   0.11986165   0.03494958
3896.00   0.12347550   0.03440424
3898.00   0.04435173   0.03419676
3900.00   0.05045552   0.03422230
3902.00   0.09995454   0.03452154
3904.00   0.23555807   0.03794655
3906.00   0.34542282   0.04326216
3908.00   0.21087530   0.04337838
3910.00   0.08364688   0.04335517
3912.00   0.10729733   0.04365948
3914.00   0.05266474   0.04051396
3916.00   0.24997286   0.03844629
3918.00   0.16004811   0.03716559
3920.00   0.08024215   0.03543911
3922.00   0.13333623   0.03491882
3924.00   0.09186291   0.03484035
3926.00   0.16125647   0.03487228
3928.00   0.21897045   0.03477135
3930.00   0.25394495   0.03559236
3932.00   0.20007418   0.03654911
3934.00   0.14419702   0.03612956
3936.00   0.17424970   0.03442764
3938.00   0.27732637   0.03474581
3940.00   0.30847346   0.03594932
3942.00   0.25763270   0.03712353
3944.00   0.22769645   0.03768960
3946.00   0.30136264   0.03601691
3948.00   0.26559698   0.03446633
3950.00   0.26103698   0.03316633
3952.00   0.31758262   0.03353582
3954.00   0.37557980   0.03431289
3956.00   0.50119109   0.03538898
3958.00   0.48610911   0.03582138
3960.00   0.52591229   0.03820118
3962.00   0.50168029   0.03822249
3964.00   0.60503674   0.03631916
3966.00   0.66259458   0.03620316
3968.00   0.68386365   0.03604461
3970.00   0.69517939   0.03640450
3972.00   0.77968846   0.03720298
3974.00   0.82585246   0.03785806
3976.00   0.80611540   0.03752125
3978.00   0.85869961   0.03780548
3980.00   0.95038777   0.03791772
3982.00   0.94748797   0.03732874
3984.00   0.90969920   0.03664843
3986.00   1.05613411   0.03803971
3988.00   1.12997804   0.03845379
3990.00   0.99320757   0.03755088
3992.00   0.88133127   0.03691188
3994.00   0.88126695   0.03816205
3996.00   0.86550169   0.03937463
3998.00   0.90068254   0.03919523
4000.00   0.78816613   0.03729102
4002.00   0.82267233   0.03695158
4004.00   0.84171020   0.03716807
4006.00   0.79809858   0.03724954
4008.00   0.84377256   0.03854241
4010.00   1.00141744   0.03923207
4012.00   0.85993958   0.03864865
4014.00   0.82343133   0.03784143
4016.00   0.82004281   0.03795727
4018.00   0.81061913   0.04105175
4020.00   0.85464657   0.04429907
4022.00   0.83161526   0.04525498
4024.00   0.82714586   0.04396174
4026.00   0.73303476   0.04061460
4028.00   0.75881740   0.03917383
4030.00   0.75980089   0.03910063
4032.00   0.75847672   0.03864362
4034.00   0.77328491   0.03823825
4036.00   0.80773390   0.03798396
4038.00   0.74568483   0.03721055
4040.00   0.66959264   0.03677811
4042.00   0.68357258   0.03844909
4044.00   0.61062135   0.05755936
4046.00   0.58016851   0.07395017
4048.00   0.64076656   0.06139979
4050.00   0.56930290   0.04054847
4052.00   0.52618580   0.03773513
4054.00   0.44498073   0.03825506
4056.00   0.45318172   0.03695199
4058.00   0.37026958   0.03469424
4060.00   0.42400314   0.03347424
4062.00   0.34827691   0.03307054
4064.00   0.50538664   0.03431702
4066.00   0.52546762   0.03442985
4068.00   0.47805331   0.03405643
4070.00   0.49280111   0.03394882
4072.00   0.53543402   0.03357297
4074.00   0.56156810   0.03470351
4076.00   0.61945664   0.04043600
4078.00   0.69037780   0.04248607
4080.00   0.80433987   0.04047832
4082.00   0.93042715   0.04012358
4084.00   1.07306063   0.04052533
4086.00   1.16563772   0.04158593
4088.00   1.23981292   0.04035501
4090.00   1.25225981   0.03851013
4092.00   1.25807863   0.03857867
4094.00   1.28556732   0.03875005
4096.00   1.26037952   0.03854153
4098.00   1.26233458   0.03858831
4100.00   1.28225282   0.03891000
4102.00   1.40091073   0.03870632
4104.00   1.46245395   0.03882968
4106.00   1.45231079   0.03938326
4108.00   1.59495547   0.04023726
4110.00   1.72081365   0.04061793
4112.00   1.58459860   0.03968872
4114.00   1.80374378   0.04075305
4116.00   1.69691901   0.04003240
4118.00   1.72306973   0.04037727
4120.00   1.68274183   0.04013004
4122.00   1.63230067   0.03902373
4124.00   1.52375783   0.03834871
4126.00   1.43568544   0.03839130
4128.00   1.49514770   0.03867105
4130.00   1.47227334   0.03887479
4132.00   1.54985090   0.04086029
4134.00   1.58870581   0.04070460
4136.00   1.62436555   0.03977016
4138.00   1.57705583   0.03993262
4140.00   1.52981093   0.04023985
4142.00   1.52135162   0.03951683
4144.00   1.46924549   0.03785632
4146.00   1.45846700   0.03757647
4148.00   1.32739067   0.03669152
4150.00   1.29726138   0.03769996
4152.00   1.23449765   0.03851067
4154.00   1.18539353   0.03710304
4156.00   1.12207606   0.03579002
4158.00   1.10467453   0.03592931
4160.00   1.07109958   0.03531711
4162.00   0.96569657   0.03567262
4164.00   1.06030354   0.03820403
4166.00   0.97810091   0.03750005
4168.00   1.04600811   0.03575529
4170.00   1.07112596   0.03550150
4172.00   0.96953673   0.03435725
4174.00   0.95970543   0.03396605
4176.00   0.96472399   0.03416604
4178.00   0.91220054   0.03436210
4180.00   0.84878043   0.03350263
4182.00   0.79313198   0.03214539
4184.00   0.66183232   0.03158460
4186.00   0.70045625   0.03177960
4188.00   0.57983856   0.03080571
4190.00   0.50660340   0.03003958
4192.00   0.52121068   0.03004656
4194.00   0.42547001   0.02960455
4196.00   0.43106904   0.02907851
4198.00   0.40347316   0.02890403
4200.00   0.43494803   0.02893832
4202.00   0.40620907   0.02891582
4204.00   0.42703067   0.02912605
4206.00   0.45042015   0.02942471
4208.00   0.48342892   0.03009493
4210.00   0.51482988   0.03038667
4212.00   0.56249587   0.03084561
4214.00   0.62349135   0.03071002
4216.00   0.55006255   0.02991963
4218.00   0.59990870   0.03035999
4220.00   0.60522166   0.03002424
4222.00   0.67154280   0.03032449
4224.00   0.64073214   0.03038080
4226.00   0.71114990   0.03117682
4228.00   0.74466400   0.03105632
4230.00   0.82000722   0.03214373
4232.00   0.81954370   0.03245262
4234.00   0.75914907   0.03212066
4236.00   0.77207419   0.03261955
4238.00   0.89345048   0.03357369
4240.00   0.97064835   0.03315243
4242.00   0.92310530   0.03210397
4244.00   1.01232153   0.03478363
4246.00   1.04518389   0.03886037
4248.00   1.12411667   0.03809026
4250.00   1.19371155   0.03432429
4252.00   1.14017954   0.03373816
4254.00   1.15908994   0.03369708
4256.00   1.16847604   0.03387392
4258.00   1.18074713   0.03375745
4260.00   1.06736315   0.03297513
4262.00   1.07722196   0.03254346
4264.00   0.93753344   0.03145082
4266.00   0.82684350   0.03073823
4268.00   0.85190322   0.03072258
4270.00   0.80325237   0.03049946
4272.00   0.78831612   0.03018403
4274.00   0.65523311   0.02964221
4276.00   0.63744555   0.02965582
4278.00   0.66242664   0.02957186
4280.00   0.58241381   0.02895757
4282.00   0.53189494   0.02922266
4284.00   0.47437022   0.02894239
4286.00   0.54174799   0.02882429
4288.00   0.51616984   0.02839634
4290.00   0.46574724   0.02786122
4292.00   0.43598153   0.02767984
4294.00   0.35697021   0.02778016
4296.00   0.38926403   0.02793433
4298.00   0.36624825   0.02758230
4300.00   0.36645106   0.02717269
4302.00   0.40576830   0.02753824
4304.00   0.32326197   0.02754830
4306.00   0.30273841   0.02791464
4308.00   0.37378758   0.02789110
4310.00   0.36128491   0.02829126
4312.00   0.38794209   0.03065494
4314.00   0.48976920   0.03240708
4316.00   0.46320816   0.03055918
4318.00   0.48124542   0.03012161
4320.00   0.57662968   0.03211886
4322.00   0.57265888   0.03166134
4324.00   0.60011032   0.03148666
4326.00   0.66326800   0.03124138
4328.00   0.75671141   0.03071418
4330.00   0.73717428   0.03053417
4332.00   0.90720380   0.03171384
4334.00   0.95347563   0.03211464
4336.00   0.95055799   0.03286729
4338.00   1.04285220   0.03382586
4340.00   1.05700153   0.03411804
4342.00   1.10973285   0.03422095
4344.00   1.19531240   0.03492334
4346.00   1.11474204   0.03602194
4348.00   1.13513044   0.03656042
4350.00   1.14293986   0.03510632
4352.00   1.03503837   0.03414224
4354.00   0.96569961   0.03640726
4356.00   0.83154459   0.06297883
4358.00   1.29248265   0.08125579
4360.00   1.26607268   0.06519842
4362.00   0.94899825   0.04035683
4364.00   0.90163982   0.03497840
4366.00   0.81273763   0.03361151
4368.00   0.75900615   0.03296676
4370.00   0.77551697   0.03260764
4372.00   0.74089306   0.03322054
4374.00   0.83952028   0.03471877
4376.00   0.78096456   0.03334790
4378.00   0.71959031   0.03210335
4380.00   0.73616729   0.03189216
4382.00   0.82505833   0.03214084
4384.00   0.86083987   0.03207942
4386.00   0.83736604   0.03179347
4388.00   0.87161866   0.03192360
4390.00   0.92754915   0.03232127
4392.00   0.99701876   0.03257602
4394.00   1.01061778   0.03243236
4396.00   1.07940745   0.03264500
4398.00   1.10872041   0.03377606
4400.00   1.10549233   0.03441520
4402.00   1.11640442   0.03396765
4404.00   1.10778980   0.03297523
4406.00   1.10675294   0.03343290
4408.00   1.16012856   0.03362381
4410.00   1.20889435   0.03378729
4412.00   1.20736130   0.03380583
4414.00   1.20674142   0.03477699
4416.00   1.18274578   0.03479567
4418.00   1.19444807   0.03382769
4420.00   1.18639067   0.03350231
4422.00   1.15050645   0.03314370
4424.00   1.15205273   0.03319348
4426.00   1.04041717   0.03264179
4428.00   1.05311685   0.03233010
4430.00   1.04532606   0.03267315
4432.00   1.01286798   0.03245478
4434.00   1.10750687   0.03262426
4436.00   1.07798496   0.03245045
4438.00   0.99800689   0.03211888
4440.00   1.05965277   0.03257760
4442.00   1.03550976   0.03230949
4444.00   1.06851787   0.03235298
4446.00   1.01435768   0.03239186
4448.00   1.08166427   0.03220821
4450.00   0.98182493   0.03190408
4452.00   1.06654221   0.03229696
4454.00   1.15589545   0.03259305
4456.00   1.22561799   0.03277398
4458.00   1.13450393   0.03288047
4460.00   1.28232469   0.03340067
4462.00   1.28879883   0.03328143
4464.00   1.44261480   0.03388844
4466.00   1.47593069   0.03419390
4468.00   1.48349331   0.03433235
4470.00   1.51651490   0.03447172
4472.00   1.55755329   0.03466962
4474.00   1.56557573   0.03463124
4476.00   1.55949242   0.03460608
4478.00   1.40287025   0.03370052
4480.00   1.37279714   0.03343103
4482.00   1.25438142   0.03295930
4484.00   1.26263639   0.03285252
4486.00   1.27457547   0.03308878
4488.00   1.26251789   0.03284162
4490.00   1.25325828   0.03282748
4492.00   1.26437216   0.03337861
4494.00   1.23448275   0.03319510
4496.00   1.26957520   0.03325462
4498.00   1.23528982   0.03308254
4500.00   1.24978321   0.03295072
4502.00   1.21689615   0.03241563
4504.00   1.13056537   0.03197542
4506.00   1.04285686   0.03158332
4508.00   1.08468349   0.03164489
4510.00   1.00336196   0.03069303
4512.00   0.98642044   0.03077512
4514.00   1.02120286   0.03086333
4516.00   0.87133634   0.02983823
4518.00   0.83922100   0.02952359
4520.00   0.87865231   0.02982790
4522.00   0.87331707   0.02980564
4524.00   0.83737749   0.02941091
4526.00   0.82600243   0.02910487
4528.00   0.75407329   0.02891249
4530.00   0.74289821   0.02877795
4532.00   0.78159099   0.02902031
4534.00   0.81764517   0.02906450
4536.00   0.74354707   0.02864201
4538.00   0.77697643   0.02851565
4540.00   0.81539965   0.02871639
4542.00   0.79882607   0.02913597
4544.00   0.75134283   0.02907351
4546.00   0.81565500   0.02908419
4548.00   0.78326173   0.02843422
4550.00   0.84636900   0.02866979
4552.00   0.88871973   0.02875523
4554.00   0.90657099   0.02902187
4556.00   1.00578105   0.02945014
4558.00   1.04070986   0.02988175
4560.00   1.03552231   0.02962294
4562.00   1.11919543   0.02999545
4564.00   1.22066341   0.03039703
4566.00   1.28153978   0.03065962
4568.00   1.36708697   0.03110403
4570.00   1.40262968   0.03131008
4572.00   1.44642001   0.03174407
4574.00   1.52702527   0.03205088
4576.00   1.66114842   0.03252944
4578.00   1.73410213   0.03270737
4580.00   1.83813388   0.03351974
4582.00   1.96969126   0.03381064
4584.00   2.01475773   0.03407135
4586.00   2.24173846   0.03490108
4588.00   2.38151123   0.03582464
4590.00   2.55180963   0.03663590
4592.00   2.59705819   0.03699104
4594.00   2.81210410   0.03793173
4596.00   2.97671900   0.03863880
4598.00   3.14955950   0.03917807
4600.00   3.27430400   0.03927988
4602.00   3.37757262   0.03957914
4604.00   3.39843372   0.03986327
4606.00   3.23663233   0.03914498
4608.00   3.23447499   0.03923431
4610.00   3.20194096   0.03914608
4612.00   3.05958039   0.03831266
4614.00   2.82357768   0.03711968
4616.00   2.66885459   0.03642325
4618.00   2.58395096   0.03594759
4620.00   2.48560633   0.03547173
4622.00   2.36835949   0.03509366
4624.00   2.32358491   0.03476771
4626.00   2.29102883   0.03454651
4628.00   2.26690553   0.03443986
4630.00   2.32564637   0.03474982
4632.00   2.32121097   0.03474757
4634.00   2.36702157   0.03502988
4636.00   2.48445510   0.03530831
4638.00   2.61598394   0.03594429
4640.00   2.71926618   0.03659602
4642.00   2.78496775   0.03675557
4644.00   2.95129278   0.03720432
4646.00   2.84143574   0.03694761
4648.00   2.85620407   0.03699546
4650.00   2.83417066   0.03701422
4652.00   2.89611447   0.03706822
4654.00   2.65612731   0.03639867
4656.00   2.60359739   0.03607361
4658.00   2.61827503   0.03623828
4660.00   2.53244353   0.03607004
4662.00   2.48396151   0.03617583
4664.00   2.46812117   0.03632915
4666.00   2.53787700   0.03672716
4668.00   2.51815565   0.03704800
4670.00   2.55145429   0.03730250
4672.00   2.61087414   0.03743864
4674.00   2.74179672   0.03751230
4676.00   2.84552079   0.03778385
4678.00   2.95619441   0.03776946
4680.00   3.00635558   0.03789865
4682.00   3.06580259   0.03797074
4684.00   3.07015091   0.03790361
4686.00   3.11508502   0.03790114
4688.00   3.13116627   0.03769698
4690.00   3.10634984   0.03744660
4692.00   2.93132983   0.03697062
4694.00   2.94674707   0.03693474
4696.00   2.84632168   0.03654181
4698.00   2.86627247   0.03608644
4700.00   3.04250518   0.03912839
4702.00   2.91642001   0.03802826
4704.00   2.76460897   0.03606150
4706.00   2.68262288   0.03579179
4708.00   2.74641047   0.03633823
4710.00   2.63809119   0.03577496
4712.00   2.76965395   0.03606708
4714.00   2.70930908   0.03573972
4716.00   2.70986464   0.03574218
4718.00   2.82971320   0.03595627
4720.00   2.67536310   0.03544797
4722.00   2.68508302   0.03547186
4724.00   2.69647786   0.03532294
4726.00   2.70854054   0.03570368
4728.00   2.64585349   0.03644787
4730.00   2.66289909   0.03654555
4732.00   2.60419600   0.03609807
4734.00   2.65843320   0.03676008
4736.00   2.72305080   0.03736674
4738.00   2.80176978   0.03787257
4740.00   2.77263984   0.03825113
4742.00   2.91663268   0.03946279
4744.00   2.87557694   0.03886800
4746.00   2.83526472   0.03704848
4748.00   2.88317991   0.03631142
4750.00   2.86061878   0.03606700
4752.00   2.88072772   0.03689662
4754.00   2.78927234   0.03628450
4756.00   2.67147837   0.03498757
4758.00   2.62135367   0.03430871
4760.00   2.50398397   0.03382878
4762.00   2.47630343   0.03351722
4764.00   2.44806654   0.03327613
4766.00   2.40724651   0.03307014
4768.00   2.36218014   0.03279812
4770.00   2.30887933   0.03252931
4772.00   2.33213880   0.03244142
4774.00   2.23311045   0.03185835
4776.00   2.10497324   0.03155838
4778.00   1.99986340   0.03178345
4780.00   1.93772554   0.03149153
4782.00   1.87092549   0.03052582
4784.00   1.83295035   0.03002807
4786.00   1.65260508   0.02902411
4788.00   1.57908238   0.02848620
4790.00   1.46601854   0.02816868
4792.00   1.35962034   0.02778798
4794.00   1.16661457   0.02645941
4796.00   0.96922110   0.02514634
4798.00   0.89389804   0.02462069
4800.00   0.73678426   0.02364264
4802.00   0.63130751   0.02303989
4804.00   0.54917748   0.02232152
4806.00   0.54254182   0.02240799
4808.00   0.47683707   0.02192898
4810.00   0.51150005   0.02204135
4812.00   0.45162666   0.02154797
4814.00   0.40918899   0.02145957
4816.00   0.35627661   0.02134352
4818.00   0.38670478   0.02150594
4820.00   0.38940654   0.02144743
4822.00   0.35734726   0.02160405
4824.00   0.42783437   0.02200274
4826.00   0.40892295   0.02212470
4828.00   0.42674321   0.02200367
4830.00   0.52616722   0.02282256
4832.00   0.51695255   0.02300757
4834.00   0.60784189   0.02360666
4836.00   0.72221860   0.02419039
4838.00   0.81595661   0.02525485
4840.00   0.92089503   0.02629527
4842.00   0.98185758   0.02630731
4844.00   1.02227354   0.02602236
4846.00   1.14207155   0.02657473
4848.00   1.19775944   0.02714775
4850.00   1.30938377   0.02780622
4852.00   1.42280310   0.02834363
4854.00   1.56909904   0.02902610
4856.00   1.79016036   0.02988009
4858.00   2.04279234   0.03089231
4860.00   2.33866976   0.03240026
4862.00   2.60224309   0.03374062
4864.00   2.85761818   0.03474509
4866.00   3.08981392   0.03564788
4868.00   3.27158452   0.03639188
4870.00   3.39935414   0.03672970
4872.00   3.60107004   0.03741038
4874.00   3.58425614   0.03734901
4876.00   3.57222229   0.03742916
4878.00   3.60484632   0.03752266
4880.00   3.61933825   0.03808573
4882.00   3.94495580   0.04107673
4884.00   3.97103711   0.04119826
4886.00   3.47320934   0.03741386
4888.00   3.23273132   0.03565862
4890.00   3.10368144   0.03504084
4892.00   3.04931060   0.03487440
4894.00   2.87411929   0.03417913
4896.00   2.70351772   0.03348295
4898.00   2.52147825   0.03261846
4900.00   2.25055198   0.03152906
4902.00   2.15721724   0.03087862
4904.00   1.98155881   0.03001110
4906.00   1.85989638   0.02952688
4908.00   1.72984985   0.02914392
4910.00   1.72450698   0.02914571
4912.00   1.71022283   0.02883102
4914.00   1.74425769   0.02896533
4916.00   1.76668180   0.02942272
4918.00   1.78383011   0.02943618
4920.00   1.80832179   0.02959376
4922.00   1.99679770   0.03021488
4924.00   2.00080509   0.03023251
4926.00   2.18487414   0.03087201
4928.00   2.37012090   0.03158512
4930.00   2.52518443   0.03226021
4932.00   2.76353686   0.03311238
4934.00   3.04269256   0.03447467
4936.00   3.23335817   0.03520440
4938.00   3.48485667   0.03608121
4940.00   3.71443568   0.03700981
4942.00   3.84290303   0.03736609
4944.00   4.00491612   0.03772941
4946.00   4.03798835   0.03777334
4948.00   4.17593098   0.03831182
4950.00   4.13291645   0.03827993
4952.00   4.15716084   0.03870082
4954.00   4.15782956   0.03895686
4956.00   4.21297453   0.03869262
4958.00   4.16910223   0.03848594
4960.00   4.09064632   0.03817110
4962.00   4.04718761   0.03811272
4964.00   4.08725666   0.03834468
4966.00   3.85293554   0.03781473
4968.00   3.73928771   0.03741204
4970.00   3.73743413   0.03757298
4972.00   3.52408295   0.03730436
4974.00   3.49792830   0.03781186
4976.00   3.37513366   0.03788861
4978.00   3.20218962   0.03827955
4980.00   3.32149429   0.04018050
4982.00   3.18959050   0.04034425
4984.00   2.63104133   0.03797516
4986.00   2.34491500   0.03587517
4988.00   2.15747345   0.03398669
4990.00   1.93711350   0.03244844
4992.00   1.76913590   0.03119581
4994.00   1.56373024   0.02956388
4996.00   1.36166753   0.02813396
4998.00   1.33697361   0.02742358
5000.00   1.22922685   0.02651131
5002.00   1.22849602   0.02643317
5004.00   1.24899747   0.02621804
5006.00   1.33907472   0.02659005
5008.00   1.33411701   0.02674544
5010.00   1.47447226   0.02699527
5012.00   1.53319883   0.02738745
5014.00   1.70449472   0.02814760
5016.00   1.87078376   0.02920411
5018.00   1.96184512   0.02988295
5020.00   2.25478725   0.03129357
5022.00   2.54455043   0.03224599
5024.00   2.68219116   0.03251832
5026.00   3.03927720   0.03472782
5028.00   3.89554846   0.04197716
5030.00   4.46902421   0.04408102
5032.00   3.83265854   0.03898000
5034.00   3.58342897   0.03664902
5036.00   3.64547299   0.03621771
5038.00   3.68687937   0.03638485
5040.00   3.79655551   0.03676411
5042.00   3.84719792   0.03698671
5044.00   3.92841890   0.03723892
5046.00   3.91772964   0.03734093
5048.00   3.97925271   0.03740259
5050.00   3.86816639   0.03700666
5052.00   3.78491886   0.03689820
5054.00   3.72813877   0.03676881
5056.00   3.68137766   0.03645518
5058.00   3.67510830   0.03637896
5060.00   3.61610586   0.03606692
5062.00   3.50239419   0.03592538
5064.00   3.38583675   0.03610214
5066.00   3.32686833   0.03584077
5068.00   3.19405874   0.03579807
5070.00   3.15879670   0.03606883
5072.00   3.09571990   0.03512844
5074.00   2.96213000   0.03436421
5076.00   2.88652741   0.03406533
5078.00   2.87136089   0.03401721
5080.00   2.86023941   0.03528979
5082.00   2.69048530   0.03675080
5084.00   2.72259309   0.03778973
5086.00   2.72549995   0.03779770
5088.00   2.75040806   0.03689225
5090.00   2.78358884   0.03514493
5092.00   2.81743686   0.03427932
5094.00   2.66947006   0.03335614
5096.00   2.71445956   0.03384311
5098.00   2.79254513   0.03478589
5100.00   2.70935163   0.03480936
5102.00   2.76091240   0.03443844
5104.00   2.70550896   0.03334898
5106.00   2.71917352   0.03304370
5108.00   2.59720174   0.03281477
5110.00   2.51866092   0.03259360
5112.00   2.56889916   0.03281610
5114.00   2.40486061   0.03235028
5116.00   2.43997037   0.03265346
5118.00   2.37981621   0.03241613
5120.00   2.28073628   0.03150364
5122.00   2.23580816   0.03104686
5124.00   2.08761074   0.03038992
5126.00   2.02629377   0.03023608
5128.00   1.89529373   0.02949236
5130.00   1.80420595   0.02896517
5132.00   1.66952556   0.02837114
5134.00   1.48390636   0.02773133
5136.00   1.50853698   0.02768735
5138.00   1.36637065   0.02682249
5140.00   1.15483894   0.02591453
5142.00   1.06855449   0.02549863
5144.00   1.01369931   0.02527879
5146.00   0.93876794   0.02498241
5148.00   0.95928390   0.02546214
5150.00   0.92711100   0.02582914
5152.00   0.86844343   0.02634390
5154.00   0.87512956   0.02689967
5156.00   0.93674022   0.02661107
5158.00   0.98656953   0.02629999
5160.00   1.10683001   0.02639942
5162.00   1.07995419   0.02605505
5164.00   1.18998047   0.02639582
5166.00   1.30575510   0.02679800
5168.00   1.32327875   0.02700288
5170.00   1.38842059   0.02746938
5172.00   1.50953643   0.02806451
5174.00   1.59062180   0.02856659
5176.00   1.65065365   0.02919476
5178.00   1.77681962   0.02978924
5180.00   1.89627474   0.03040483
5182.00   2.03379261   0.03108208
5184.00   2.03849490   0.03106447
5186.00   2.18475099   0.03178655
5188.00   2.24113926   0.03218408
5190.00   2.36389968   0.03267993
5192.00   2.43711342   0.03290911
5194.00   2.43898083   0.03305462
5196.00   2.56607378   0.03374700
5198.00   2.60715267   0.03444720
5200.00   2.78263999   0.03534173
5202.00   2.83229197   0.03556295
5204.00   2.89801080   0.03564271
5206.00   2.86232175   0.03543921
5208.00   2.99512683   0.03618700
5210.00   2.99404159   0.03665541
5212.00   2.84195169   0.03627845
5214.00   2.79914120   0.03584923
5216.00   2.78676093   0.03558806
5218.00   2.76674768   0.03577222
5220.00   2.63872794   0.03564617
5222.00   2.61128076   0.03553389
5224.00   2.52211265   0.03489186
5226.00   2.46352056   0.03437899
5228.00   2.52320956   0.03452418
5230.00   2.39394455   0.03415600
5232.00   2.33186043   0.03401123
5234.00   2.36295828   0.03409907
5236.00   2.35021639   0.03411761
5238.00   2.33089745   0.03439648
5240.00   2.31972499   0.03449791
5242.00   2.38967751   0.03483980
5244.00   2.48559564   0.03520237
5246.00   2.58218435   0.03560908
5248.00   2.57038033   0.03547510
5250.00   2.63286294   0.03575805
5252.00   2.59102455   0.03578678
5254.00   2.50047644   0.03552772
5256.00   2.52911025   0.03602167
5258.00   2.59468601   0.03642123
5260.00   2.52537700   0.03615480
5262.00   2.46950517   0.03570826
5264.00   2.35888637   0.03516990
5266.00   2.36232624   0.03524919
5268.00   2.32137580   0.03502142
5270.00   2.29029893   0.03515333
5272.00   2.40014008   0.03572041
5274.00   2.40534489   0.03569169
5276.00   2.52308121   0.03642160
5278.00   2.60611988   0.03666618
5280.00   2.62681145   0.03698070
5282.00   2.65934774   0.03738747
5284.00   2.73099411   0.03819167
5286.00   2.76764378   0.03848381
5288.00   2.78611869   0.03841413
5290.00   2.84808005   0.03856095
5292.00   2.82345884   0.03848056
5294.00   2.65142090   0.03793942
5296.00   2.68205153   0.03802775
5298.00   2.57661244   0.03776883
5300.00   2.58987204   0.03794400
5302.00   2.41703752   0.03747008
5304.00   2.32684074   0.03697835
5306.00   2.26941615   0.03682702
5308.00   2.10814739   0.03607764
5310.00   2.13684463   0.03621742
5312.00   2.11466345   0.03634636
5314.00   2.12631372   0.03672484
5316.00   2.15777182   0.03689889
5318.00   2.26520265   0.03756899
5320.00   2.33677892   0.03774831
5322.00   2.55907020   0.03885700
5324.00   2.47349894   0.03888499
5326.00   2.68749363   0.03997562
5328.00   2.75657751   0.04058516
5330.00   2.83403436   0.04095554
5332.00   2.86022833   0.04136847
5334.00   2.85996702   0.04144808
5336.00   2.90876478   0.04179964
5338.00   2.99223821   0.04228326
5340.00   3.00797932   0.04313908
5342.00   3.10336591   0.04369167
5344.00   3.20567361   0.04402145
5346.00   3.20271077   0.04409924
5348.00   3.28509789   0.04546800
5350.00   3.13826084   0.04543949
5352.00   3.16945518   0.04498333
5354.00   3.14721968   0.04519181
5356.00   3.16143715   0.04595173
5358.00   3.12878066   0.04541141
5360.00   2.95328422   0.04414423
5362.00   2.97157361   0.04389288
5364.00   2.86667811   0.04334032
5366.00   3.01008107   0.04598724
5368.00   2.93092546   0.04374011
5370.00   2.95161419   0.04401562
5372.00   3.03283655   0.04465250
5374.00   2.91278923   0.04489825
5376.00   3.03244522   0.04589188
5378.00   3.03682962   0.04597066
5380.00   2.93196443   0.04548215
5382.00   3.01735782   0.04586737
5384.00   2.94929016   0.04576752
5386.00   2.99850571   0.04574297
5388.00   2.98907387   0.01886264
5390.00   3.01983488   0.01867497
5392.00   3.04055142   0.01850795
5394.00   3.04585373   0.01919888
5396.00   3.03464472   0.02137415
5398.00   3.03087556   0.02319727
5400.00   3.02759123   0.02261283
5402.00   3.01337063   0.02084110
5404.00   2.98940778   0.02170012
5406.00   2.96521401   0.02321398
5408.00   2.96861899   0.02289689
5410.00   3.00069010   0.02080302
5412.00   3.00396609   0.02033224
5414.00   2.99732888   0.02068525
5416.00   3.00567031   0.02208782
5418.00   2.98778677   0.02349377
5420.00   2.93918419   0.02348142
5422.00   2.92662883   0.02263582
5424.00   2.93145132   0.02064971
5426.00   2.96855056   0.02067218
5428.00   3.04298878   0.02241117
5430.00   3.10327911   0.02361073
5432.00   3.17777026   0.02322559
5434.00   3.27491534   0.02170020
5436.00   3.38520312   0.02131612
5438.00   3.53975368   0.02140228
5440.00   3.62926316   0.02154195
5442.00   3.62917042   0.02198362
5444.00   3.62110388   0.02243698
5446.00   3.64593148   0.02231749
5448.00   3.67096245   0.02177481
5450.00   3.67521584   0.02178174
5452.00   3.67976213   0.02175323
5454.00   3.64599669   0.02280306
5456.00   3.55087888   0.02540599
5458.00   3.46471560   0.02731119
5460.00   3.42019570   0.02798199
5462.00   3.41906595   0.02786558
5464.00   3.41838682   0.02714514
5466.00   3.42393088   0.02531085
5468.00   3.43873870   0.02415607
5470.00   3.48324382   0.02354257
5472.00   3.47200346   0.02285517
5474.00   3.39736140   0.02131842
5476.00   3.32378578   0.02027805
5478.00   3.25875354   0.02105836
5480.00   3.20159817   0.02239295
5482.00   3.17587256   0.02230118
5484.00   3.16701114   0.02144214
5486.00   3.15938354   0.02088528
5488.00   3.18457627   0.02017475
5490.00   3.21149337   0.01973559
5492.00   3.19113135   0.01957346
5494.00   3.13320363   0.01941500
5496.00   3.10931528   0.01925076
5498.00   3.11244988   0.01920749
5500.00   3.10180783   0.01920921
5502.00   3.07537305   0.01925934
5504.00   3.04013181   0.01914232
5506.00   2.99508262   0.01902748
5508.00   2.92158782   0.01880338
5510.00   2.87461507   0.01865591
5512.00   2.84729278   0.01858035
5514.00   2.80678904   0.01889620
5516.00   2.75311148   0.01994049
5518.00   2.71377385   0.02038111
5520.00   2.66958547   0.01951507
5522.00   2.63441455   0.01818052
5524.00   2.62190759   0.01791717
5526.00   2.61693120   0.01809061
5528.00   2.61194289   0.01862198
5530.00   2.59126341   0.01996547
5532.00   2.63170207   0.02026859
5534.00   2.77010405   0.01893605
5536.00   2.90560257   0.01808398
5538.00   2.95382166   0.01879279
5540.00   2.98007214   0.01958325
5542.00   3.09367788   0.01918038
5544.00   3.27131021   0.01801022
5546.00   3.38271785   0.01787944
5548.00   3.46108961   0.01856362
5550.00   3.48244238   0.01905807
5552.00   3.44633472   0.01941529
5554.00   3.40240836   0.02001402
5556.00   3.40379310   0.02036872
5558.00   3.43886018   0.01999222
5560.00   3.46137357   0.01935620
5562.00   3.49590993   0.01795460
5564.00   3.48358667   0.01833139
5566.00   3.41584766   0.01979991
5568.00   3.31602931   0.02195631
5570.00   3.25209057   0.02375441
5572.00   3.19541299   0.02550663
5574.00   3.17070472   0.02664696
5576.00   3.18677688   0.02768017
5578.00   3.20646334   0.02748155
5580.00   3.21237504   0.02592004
5582.00   3.20869863   0.02395188
5584.00   3.20442772   0.02204640
5586.00   3.19216585   0.02001606
5588.00   3.19537103   0.01904586
5590.00   3.21569514   0.01912503
5592.00   3.23141909   0.01889910
5594.00   3.23550618   0.01852497
5596.00   3.23255074   0.01835078
5598.00   3.23603940   0.01829939
5600.00   3.22890460   0.01828189
5602.00   3.21008337   0.01817783
5604.00   3.17762136   0.01787584
5606.00   3.17605937   0.01788631
5608.00   3.21830738   0.01843920
5610.00   3.23851204   0.01901678
5612.00   3.22168744   0.01865101
5614.00   3.17065334   0.01819624
5616.00   3.11690307   0.01908885
5618.00   3.07004082   0.02022782
5620.00   3.02599061   0.01989960
5622.00   2.97056568   0.01808569
5624.00   2.91990232   0.01735650
5626.00   2.89657366   0.01702187
5628.00   2.86634624   0.01698010
5630.00   2.82686651   0.01712285
5632.00   2.79233110   0.01732725
5634.00   2.74508488   0.01715546
5636.00   2.68062544   0.01664099
5638.00   2.62169683   0.01629750
5640.00   2.56994104   0.01612832
5642.00   2.53431213   0.01605366
5644.00   2.50942993   0.01600044
5646.00   2.48629701   0.01598236
5648.00   2.43889046   0.01590948
5650.00   2.36987472   0.01579162
5652.00   2.33033335   0.01573876
5654.00   2.31156826   0.01573082
5656.00   2.30721688   0.01578625
5658.00   2.32144749   0.01590310
5660.00   2.34815907   0.01607424
5662.00   2.38278913   0.01632356
5664.00   2.42403865   0.01664247
5666.00   2.48002207   0.01701511
5668.00   2.55890083   0.01750989
5670.00   2.64159369   0.01793067
5672.00   2.71521068   0.01812588
5674.00   2.77155042   0.01818609
5676.00   2.83678520   0.01892654
5678.00   2.91553712   0.02022035
5680.00   2.98294306   0.02151909
5682.00   3.04833984   0.02326956
5684.00   3.10029840   0.02436597
5686.00   3.11778879   0.02445540
5688.00   3.11275351   0.02376257
5690.00   3.14460492   0.02359674
5692.00   3.20690513   0.02417517
5694.00   3.24970198   0.02366408
5696.00   3.28592527   0.02198127
5698.00   3.31022036   0.02054729
5700.00   3.33186293   0.01981343
5702.00   3.33770323   0.01943525
5704.00   3.32215619   0.01905840
5706.00   3.28539860   0.01884053
5708.00   3.25770748   0.01866821
5710.00   3.23723650   0.01863443
5712.00   3.23504674   0.01848517
5714.00   3.25608480   0.01781907
5716.00   3.24556696   0.01799438
5718.00   3.20921230   0.01936669
5720.00   3.17170501   0.02045185
5722.00   3.13561213   0.02049381
5724.00   3.08591354   0.01993940
5726.00   3.06855536   0.01918405
5728.00   3.09008348   0.01757965
5730.00   3.10770106   0.01681194
5732.00   3.11999321   0.01682465
5734.00   3.13503373   0.01694334
5736.00   3.12873077   0.01687676
5738.00   3.08791733   0.01670185
5740.00   3.07482767   0.01679798
5742.00   3.08800399   0.01723598
5744.00   3.09219253   0.01754551
5746.00   3.06790459   0.01762435
5748.00   3.05465710   0.01741529
5750.00   3.06181657   0.01713997
5752.00   3.06522465   0.01680133
5754.00   3.05502450   0.01665530
5756.00   3.02998126   0.01662643
5758.00   3.01681542   0.01672374
5760.00   3.02349997   0.01693524
5762.00   3.03387403   0.01720127
5764.00   3.01177406   0.01757682
5766.00   2.97315633   0.01796923
5768.00   2.94659245   0.01821770
5770.00   2.91817939   0.01850745
5772.00   2.89452922   0.01841971
5774.00   2.88310492   0.01776471
5776.00   2.86317360   0.01711085
5778.00   2.83183312   0.01664716
5780.00   2.80363727   0.01637234
5782.00   2.79428184   0.01643911
5784.00   2.80134809   0.01685721
5786.00   2.75055742   0.01731523
5788.00   2.62200797   0.01815384
5790.00   2.54535615   0.01832247
5792.00   2.54832697   0.01765413
5794.00   2.57791173   0.01685367
5796.00   2.55346715   0.01643545
5798.00   2.48622823   0.01609844
5800.00   2.41489244   0.01581765
5802.00   2.32850397   0.01572479
5804.00   2.24711645   0.01552836
5806.00   2.16487473   0.01507065
5808.00   2.07212770   0.01454309
5810.00   1.98544276   0.01424579
5812.00   1.91844583   0.01409239
5814.00   1.82113361   0.01387779
5816.00   1.69872332   0.01366613
5818.00   1.58630288   0.01348733
5820.00   1.48253942   0.01335443
5822.00   1.38209474   0.01322434
5824.00   1.28623748   0.01302708
5826.00   1.20889348   0.01282861
5828.00   1.14716280   0.01276440
5830.00   1.08951545   0.01276719
5832.00   1.01798806   0.01272433
5834.00   0.92930838   0.01269826
5836.00   0.87539154   0.01262025
5838.00   0.83824033   0.01242966
5840.00   0.81546405   0.01232557
5842.00   0.81080306   0.01236428
5844.00   0.82334867   0.01246505
5846.00   0.82748014   0.01254607
5848.00   0.82646301   0.01254637
5850.00   0.83091906   0.01272247
5852.00   0.84069079   0.01318422
5854.00   0.87250161   0.01382963
5856.00   0.91968083   0.01447104
5858.00   0.95966247   0.01548795
5860.00   1.00888070   0.01570955
5862.00   1.06245768   0.01514690
5864.00   1.14478704   0.01480033
5866.00   1.26831400   0.01501214
5868.00   1.39280200   0.01534237
5870.00   1.46702772   0.01533323
5872.00   1.48207778   0.01514898
5874.00   1.51723653   0.01536315
5876.00   1.55395377   0.01571821
5878.00   1.60479826   0.01649570
5880.00   1.67296672   0.01721758
5882.00   1.73956800   0.01888451
5884.00   1.75135094   0.02153654
5886.00   1.72192347   0.02456565
5888.00   1.83575886   0.02808902
5890.00   2.07864517   0.03300536
5892.00   2.29065919   0.03465357
5894.00   2.50359118   0.03380279
5896.00   2.70355582   0.03154093
5898.00   2.88363409   0.02810478
5900.00   3.01760411   0.02412085
5902.00   3.16944253   0.02156737
5904.00   3.34003532   0.02027678
5906.00   3.49038148   0.01894939
5908.00   3.62929308   0.01797983
5910.00   3.75454628   0.01830168
5912.00   3.88369870   0.02042338
5914.00   3.96857190   0.02112929
5916.00   3.98298621   0.02030276
5918.00   3.94260418   0.01906742
5920.00   3.94981325   0.01846600
5922.00   3.98269200   0.01820283
5924.00   3.99849653   0.01813239
5926.00   3.99060190   0.01826750
5928.00   3.98141515   0.01813275
5930.00   3.97159493   0.01794333
5932.00   3.93843460   0.01790637
5934.00   3.91143632   0.01836422
5936.00   3.90669692   0.01908577
5938.00   3.88242602   0.01897843
5940.00   3.81897652   0.01795077
5942.00   3.75363088   0.01741727
5944.00   3.73052025   0.01708936
5946.00   3.73855376   0.01692461
5948.00   3.73155642   0.01687109
5950.00   3.71368837   0.01695112
5952.00   3.68519878   0.01747619
5954.00   3.64479661   0.01877435
5956.00   3.61671114   0.01898977
5958.00   3.59052491   0.01797922
5960.00   3.56709516   0.01701420
5962.00   3.55266798   0.01666376
5964.00   3.52686381   0.01651575
5966.00   3.49665320   0.01652090
5968.00   3.47047389   0.01690901
5970.00   3.45118940   0.01704583
5972.00   3.42422199   0.01670805
5974.00   3.37559247   0.01637762
5976.00   3.31895769   0.01620211
5978.00   3.27644169   0.01642398
5980.00   3.27920842   0.01763728
5982.00   3.31397116   0.01939015
5984.00   3.30033648   0.01931394
5986.00   3.24609661   0.01718144
5988.00   3.21228039   0.01652651
5990.00   3.17286253   0.01668281
5992.00   3.13909483   0.01650974
5994.00   3.13068950   0.01611399
5996.00   3.12968016   0.01576831
5998.00   3.12254107   0.01569298
6000.00   3.12272334   0.01578510
6002.00   3.12347424   0.01587540
6004.00   3.09570765   0.01621723
6006.00   3.06715763   0.01632865
6008.00   3.07552755   0.01600249
6010.00   3.10214686   0.01585740
6012.00   3.10486412   0.01618127
6014.00   3.09416866   0.01676081
6016.00   3.08607244   0.01706790
6018.00   3.08401060   0.01798388
6020.00   3.06603324   0.01812240
6022.00   3.01631773   0.01684465
6024.00   2.96101105   0.01553995
6026.00   2.96201503   0.01541882
6028.00   3.00329542   0.01594109
6030.00   2.99966526   0.01569262
6032.00   2.95828938   0.01503834
6034.00   2.93885243   0.01484588
6036.00   2.92176247   0.01476583
6038.00   2.91122866   0.01458199
6040.00   2.91804969   0.01449542
6042.00   2.93151641   0.01452122
6044.00   2.93144453   0.01446698
6046.00   2.93394089   0.01422817
6048.00   2.92433417   0.01407379
6050.00   2.88316774   0.01429617
6052.00   2.84499812   0.01498276
6054.00   2.82949758   0.01550207
6056.00   2.82102871   0.01621841
6058.00   2.83616066   0.01624498
6060.00   2.89482141   0.01544550
6062.00   2.91907132   0.01445538
6064.00   2.89738250   0.01387471
6066.00   2.86102676   0.01393120
6068.00   2.83480656   0.01396025
6070.00   2.80849469   0.01396475
6072.00   2.79834604   0.01393512
6074.00   2.80588996   0.01390627
6076.00   2.80389166   0.01401512
6078.00   2.78548598   0.01426324
6080.00   2.77547824   0.01437378
6082.00   2.78029394   0.01434570
6084.00   2.78346431   0.01427956
6086.00   2.78725219   0.01429332
6088.00   2.79878008   0.01425624
6090.00   2.79491210   0.01432463
6092.00   2.76554537   0.01469532
6094.00   2.74303520   0.01494424
6096.00   2.74058557   0.01471253
6098.00   2.73797166   0.01443185
6100.00   2.72305405   0.01429730
6102.00   2.71357119   0.01399802
6104.00   2.68157887   0.01384883
6106.00   2.62254000   0.01379302
6108.00   2.54826331   0.01413487
6110.00   2.46931422   0.01500746
6112.00   2.39990461   0.01580829
6114.00   2.34222269   0.01580008
6116.00   2.29396307   0.01520718
6118.00   2.23805177   0.01465281
6120.00   2.17046738   0.01379724
6122.00   2.11616439   0.01343152
6124.00   2.07934237   0.01365320
6126.00   2.07043165   0.01369144
6128.00   2.07389176   0.01337188
6130.00   2.08236092   0.01294403
6132.00   2.09570491   0.01289727
6134.00   2.11326778   0.01306600
6136.00   2.14749086   0.01315178
6138.00   2.20066887   0.01330593
6140.00   2.26216674   0.01353164
6142.00   2.32265437   0.01347696
6144.00   2.38878393   0.01331654
6146.00   2.47317958   0.01336583
6148.00   2.57440007   0.01341243
6150.00   2.66550457   0.01355489
6152.00   2.75724232   0.01393730
6154.00   2.83118820   0.01431689
6156.00   2.89102590   0.01449204
6158.00   2.95073414   0.01452430
6160.00   3.01325262   0.01450702
6162.00   3.07999253   0.01438654
6164.00   3.14113045   0.01427014
6166.00   3.20077825   0.01410144
6168.00   3.24888813   0.01399270
6170.00   3.28781450   0.01397678
6172.00   3.30985034   0.01403897
6174.00   3.32523978   0.01394305
6176.00   3.32840061   0.01379244
6178.00   3.32710838   0.01396208
6180.00   3.32411551   0.01440644
6182.00   3.32038140   0.01442815
6184.00   3.30542612   0.01410759
6186.00   3.27028704   0.01410987
6188.00   3.22557712   0.01421559
6190.00   3.18155134   0.01410057
6192.00   3.15929902   0.01385356
6194.00   3.15586877   0.01332050
6196.00   3.11757922   0.01341694
6198.00   3.03270173   0.01441574
6200.00   2.97495294   0.01516967
6202.00   2.95545924   0.01507793
6204.00   2.93807065   0.01461344
6206.00   2.91085517   0.01427393
6208.00   2.88914764   0.01371131
6210.00   2.85756803   0.01328010
6212.00   2.80268514   0.01301668
6214.00   2.76139390   0.01280871
6216.00   2.74884462   0.01264873
6218.00   2.74921787   0.01259897
6220.00   2.73720336   0.01252160
6222.00   2.72955179   0.01243549
6224.00   2.70842588   0.01240135
6226.00   2.66893148   0.01232154
6228.00   2.62895632   0.01257212
6230.00   2.60355043   0.01341009
6232.00   2.58362067   0.01388978
6234.00   2.55058789   0.01352371
6236.00   2.50815511   0.01264034
6238.00   2.48035514   0.01233336
6240.00   2.46414363   0.01219703
6242.00   2.45771754   0.01229443
6244.00   2.44451737   0.01292251
6246.00   2.43925476   0.01360701
6248.00   2.48629463   0.01354541
6250.00   2.57299149   0.01269202
6252.00   2.64969444   0.01246843
6254.00   2.74235964   0.01258947
6256.00   2.82448971   0.01270547
6258.00   2.89520681   0.01270734
6260.00   2.94794965   0.01293713
6262.00   3.01151419   0.01325921
6264.00   3.08632243   0.01400672
6266.00   3.11754405   0.01508119
6268.00   3.10864162   0.01587129
6270.00   3.08999562   0.01540286
6272.00   3.05069351   0.01337024
6274.00   3.01959300   0.01267050
6276.00   2.98993564   0.01270493
6278.00   2.96747470   0.01281844
6280.00   2.96056426   0.01282705
6282.00   2.97621346   0.01277381
6284.00   2.98503995   0.01272406
6286.00   2.99506879   0.01264820
6288.00   2.99095547   0.01271341
6290.00   2.97407520   0.01271137
6292.00   2.95953882   0.01313478
6294.00   2.96228647   0.01411141
6296.00   2.97665226   0.01506969
6298.00   2.98285997   0.01570752
6300.00   2.99176955   0.01627656
6302.00   2.97402024   0.01623491
6304.00   2.92117310   0.01540228
6306.00   2.87761319   0.01480990
6308.00   2.83865249   0.01409954
6310.00   2.79386044   0.01310558
6312.00   2.77813339   0.01262010
6314.00   2.79166937   0.01269218
6316.00   2.79605150   0.01265813
6318.00   2.79093730   0.01250113
6320.00   2.78797340   0.01226103
6322.00   2.79423714   0.01233752
6324.00   2.80189943   0.01241727
6326.00   2.81064856   0.01231168
6328.00   2.82145679   0.01220057
6330.00   2.82353950   0.01215310
6332.00   2.81638086   0.01212834
6334.00   2.80991137   0.01207048
6336.00   2.81123447   0.01203004
6338.00   2.81300437   0.01195220
6340.00   2.79304683   0.01179399
6342.00   2.75773990   0.01166585
6344.00   2.72042596   0.01171166
6346.00   2.67698359   0.01184097
6348.00   2.63047099   0.01199993
6350.00   2.57321250   0.01245935
6352.00   2.51937306   0.01267516
6354.00   2.47896492   0.01239386
6356.00   2.44093800   0.01219524
6358.00   2.44759214   0.01211571
6360.00   2.50721192   0.01192972
6362.00   2.52466655   0.01169624
6364.00   2.50448120   0.01162400
6366.00   2.46526301   0.01152965
6368.00   2.38778067   0.01119839
6370.00   2.29745007   0.01081734
6372.00   2.29561937   0.01075472
6374.00   2.36131763   0.01091665
6376.00   2.38010180   0.01093898
6378.00   2.35657847   0.01078003
6380.00   2.35669804   0.01091417
6382.00   2.38042593   0.01128103
6384.00   2.40668201   0.01152556
6386.00   2.45187664   0.01201130
6388.00   2.51366997   0.01268504
6390.00   2.54843235   0.01275999
6392.00   2.56090426   0.01239423
6394.00   2.58627307   0.01231110
6396.00   2.62980735   0.01218872
6398.00   2.66499829   0.01161720
6400.00   2.66799784   0.01128656
6402.00   2.65244651   0.01132766
6404.00   2.64120674   0.01132424
6406.00   2.62209129   0.01137767
6408.00   2.59588861   0.01134317
6410.00   2.56780803   0.01110967
6412.00   2.54370749   0.01123593
6414.00   2.50675452   0.01165693
6416.00   2.46430421   0.01195096
6418.00   2.43913496   0.01258684
6420.00   2.42514622   0.01352344
6422.00   2.40942192   0.01360217
6424.00   2.40432346   0.01271509
6426.00   2.37714541   0.01220240
6428.00   2.32985461   0.01151845
6430.00   2.28139496   0.01055829
6432.00   2.22930944   0.01024280
6434.00   2.16796094   0.01034181
6436.00   2.10265201   0.01036693
6438.00   2.03845066   0.01053674
6440.00   1.96138859   0.01066425
6442.00   1.86593974   0.01058635
6444.00   1.75573945   0.01041715
6446.00   1.63693184   0.01016237
6448.00   1.49795687   0.00955529
6450.00   1.36885893   0.00914856
6452.00   1.24182260   0.00887082
6454.00   1.13340682   0.00882405
6456.00   1.03464332   0.00894876
6458.00   0.94045186   0.00892409
6460.00   0.85320118   0.00883703
6462.00   0.77409181   0.00867146
6464.00   0.71192595   0.00833950
6466.00   0.66606888   0.00785902
6468.00   0.62991801   0.00764828
6470.00   0.60722938   0.00760201
6472.00   0.58164471   0.00761567
6474.00   0.56062689   0.00781905
6476.00   0.55639702   0.00792030
6478.00   0.55536196   0.00798137
6480.00   0.55812716   0.00811351
6482.00   0.56805286   0.00810990
6484.00   0.58728552   0.00785929
6486.00   0.60627669   0.00778055
6488.00   0.63247952   0.00777077
6490.00   0.67249823   0.00766258
6492.00   0.70845324   0.00783473
6494.00   0.73461410   0.00832775
6496.00   0.77426296   0.00860355
6498.00   0.82222018   0.00877246
6500.00   0.88496459   0.00887074
6502.00   0.96498013   0.00890305
6504.00   1.05473027   0.00888009
6506.00   1.13397932   0.00893761
6508.00   1.20942026   0.00907291
6510.00   1.28927475   0.00912760
6512.00   1.36832571   0.00904376
6514.00   1.45190036   0.00919815
6516.00   1.54068416   0.00973397
6518.00   1.63686025   0.01025045
6520.00   1.74189258   0.01044373
6522.00   1.85966742   0.01048305
6524.00   1.98777252   0.01049184
6526.00   2.12364268   0.01031723
6528.00   2.25696325   0.01092691
6530.00   2.38325846   0.01265927
6532.00   2.53577828   0.01342740
6534.00   2.70524132   0.01333969
6536.00   2.89099395   0.01298623
6538.00   3.09099317   0.01251902
6540.00   3.29655957   0.01199233
6542.00   3.51373088   0.01263477
6544.00   3.73646259   0.01453279
6546.00   3.99964345   0.01522138
6548.00   4.29342902   0.01519577
6550.00   4.61106205   0.01506412
6552.00   4.94657874   0.01493670
6554.00   5.29580688   0.01500149
6556.00   5.66460085   0.01540109
6558.00   6.05423808   0.01611030
6560.00   6.45835996   0.01642954
6562.00   6.90167308   0.01602645
6564.00   7.31781244   0.01668583
6566.00   7.67811179   0.01889339
6568.00   8.02351665   0.02066372
6570.00   8.35516977   0.02116417
6572.00   8.66865754   0.02119847
6574.00   8.94260025   0.02112640
6576.00   9.19576216   0.02001278
6578.00   9.39324141   0.01931187
6580.00   9.53764486   0.01918677
6582.00   9.65503263   0.02007276
6584.00   9.77721739   0.02227567
6586.00   9.93103981   0.02457113
6588.00   9.94043112   0.02650752
6590.00   9.78649426   0.02962416
6592.00   9.58707476   0.03171872
6594.00   9.40137625   0.03053428
6596.00   9.16656733   0.02655374
6598.00   8.89667487   0.02313489
6600.00   8.62360072   0.01919417
6602.00   8.35783505   0.01797701
6604.00   8.06315446   0.02028258
6606.00   7.84096241   0.02103384
6608.00   7.69263768   0.02043745
6610.00   7.54292321   0.01969070
6612.00   7.41566324   0.01854382
6614.00   7.30914378   0.01673179
6616.00   7.19168615   0.01611480
6618.00   7.08660889   0.01647449
6620.00   6.96577930   0.01708601
6622.00   6.79652476   0.01833921
6624.00   6.64139962   0.01857509
6626.00   6.53435993   0.01788171
6628.00   6.44517350   0.01677890
6630.00   6.35687160   0.01629575
6632.00   6.28162169   0.01643310
6634.00   6.17128277   0.01638707
6636.00   6.01909232   0.01593418
6638.00   5.88275433   0.01524295
6640.00   5.75155520   0.01512408
6642.00   5.61686254   0.01525639
6644.00   5.51011968   0.01503381
6646.00   5.43078470   0.01463975
6648.00   5.33592200   0.01441185
6650.00   5.23119164   0.01433513
6652.00   5.12014985   0.01417401
6654.00   5.00525308   0.01394775
6656.00   4.90150380   0.01374579
6658.00   4.79863644   0.01353272
6660.00   4.68651295   0.01327329
6662.00   4.59624124   0.01313984
6664.00   4.53199863   0.01315593
6666.00   4.45164728   0.01311681
6668.00   4.34759033   0.01297026
6670.00   4.24839783   0.01279313
6672.00   4.15800345   0.01266162
6674.00   4.06603992   0.01253225
6676.00   3.98559391   0.01242369
6678.00   3.91823387   0.01234763
6680.00   3.84874642   0.01226054
6682.00   3.76993942   0.01214388
6684.00   3.69787884   0.01203387
6686.00   3.64648438   0.01196157
6688.00   3.60393703   0.01190781
6690.00   3.55263209   0.01175272
6692.00   3.49954641   0.01148319
6694.00   3.44106758   0.01189473
6696.00   3.36313009   0.01337403
6698.00   3.31483781   0.01389332
6700.00   3.29568374   0.01344688
6702.00   3.27632701   0.01270238
6704.00   3.25101686   0.01215117
6706.00   3.22514009   0.01153953
6708.00   3.18158722   0.01139900
6710.00   3.11541903   0.01187277
6712.00   3.06224155   0.01205776
6714.00   3.02108526   0.01183037
6716.00   2.98733115   0.01144410
6718.00   2.95125186   0.01122729
6720.00   2.91277969   0.01089945
6722.00   2.88900518   0.01102624
6724.00   2.88213575   0.01180075
6726.00   2.86800909   0.01224670
6728.00   2.84546816   0.01184353
6730.00   2.81266773   0.01140164
6732.00   2.77354288   0.01215704
6734.00   2.73246312   0.01324972
6736.00   2.72352910   0.01307605
6738.00   2.74170017   0.01206114
6740.00   2.75345886   0.01153946
6742.00   2.76850283   0.01129990
6744.00   2.77235413   0.01114168
6746.00   2.75523162   0.01124216
6748.00   2.72342038   0.01146748
6750.00   2.70449626   0.01140670
6752.00   2.69227052   0.01099830
6754.00   2.67322743   0.01105100
6756.00   2.64106500   0.01172033
6758.00   2.61983657   0.01228472
6760.00   2.62072229   0.01227453
6762.00   2.63050663   0.01188049
6764.00   2.62650073   0.01181745
6766.00   2.62356985   0.01207679
6768.00   2.60962689   0.01191290
6770.00   2.57712650   0.01127798
6772.00   2.55453861   0.01072985
6774.00   2.55562747   0.01041394
6776.00   2.55765200   0.01031045
6778.00   2.54457247   0.01049558
6780.00   2.52144337   0.01080100
6782.00   2.52095580   0.01107534
6784.00   2.54572773   0.01163041
6786.00   2.55150962   0.01183527
6788.00   2.52732205   0.01138817
6790.00   2.49337864   0.01075279
6792.00   2.48068631   0.01045822
6794.00   2.48246610   0.01027822
6796.00   2.47714043   0.01017260
6798.00   2.47394240   0.01021789
6800.00   2.47454870   0.01028262
6802.00   2.47597122   0.01039915
6804.00   2.47853172   0.01043128
6806.00   2.48864543   0.01032076
6808.00   2.49509823   0.01049712
6810.00   2.50319195   0.01107742
6812.00   2.51491892   0.01165342
6814.00   2.50482762   0.01154622
6816.00   2.46729362   0.01067282
6818.00   2.44938159   0.01043509
6820.00   2.44446480   0.01078522
6822.00   2.43517423   0.01138378
6824.00   2.43439090   0.01150070
6826.00   2.45159006   0.01113508
6828.00   2.45362568   0.01118976
6830.00   2.44222879   0.01164741
6832.00   2.43451500   0.01182843
6834.00   2.43601203   0.01151606
6836.00   2.44064271   0.01107584
6838.00   2.45231700   0.01092108
6840.00   2.47400975   0.01080934
6842.00   2.47514725   0.01057070
6844.00   2.46006310   0.01027169
6846.00   2.45688403   0.01048835
6848.00   2.46798563   0.01126916
6850.00   2.47688806   0.01169220
6852.00   2.46942008   0.01189509
6854.00   2.45840836   0.01208780
6856.00   2.48378932   0.01238231
6858.00   2.52784491   0.01263144
6860.00   2.54707360   0.01263675
6862.00   2.56112111   0.01237362
6864.00   2.55837381   0.01236562
6866.00   2.51742101   0.01239096
6868.00   2.46675503   0.01234912
6870.00   2.40703702   0.01205111
6872.00   2.33374345   0.01150296
6874.00   2.31659937   0.01115069
6876.00   2.34395528   0.01076140
6878.00   2.38160074   0.01095066
6880.00   2.46065569   0.01201790
6882.00   2.51261556   0.01249625
6884.00   2.50988424   0.01220906
6886.00   2.48357236   0.01175877
6888.00   2.44891596   0.01144692
6890.00   2.38983333   0.01100959
6892.00   2.35116136   0.01115949
6894.00   2.32705593   0.01214649
6896.00   2.31178904   0.01241012
6898.00   2.31589866   0.01244064
6900.00   2.34320652   0.01325523
6902.00   2.35965800   0.01315723
6904.00   2.37211895   0.01203253
6906.00   2.38063228   0.01125765
6908.00   2.38932133   0.01110150
6910.00   2.39420640   0.01111684
6912.00   2.39832354   0.01104890
6914.00   2.39921331   0.01096093
6916.00   2.39090466   0.01091188
6918.00   2.37983441   0.01075640
6920.00   2.37693059   0.01090460
6922.00   2.38493884   0.01136506
6924.00   2.37130320   0.01224738
6926.00   2.33530343   0.01331865
6928.00   2.31692541   0.01324933
6930.00   2.32266843   0.01234410
6932.00   2.33607662   0.01105739
6934.00   2.34004664   0.01048748
6936.00   2.34007955   0.01032215
6938.00   2.34317756   0.01037608
6940.00   2.34906363   0.01070218
6942.00   2.35847771   0.01115301
6944.00   2.37249744   0.01180494
6946.00   2.38258684   0.01211735
6948.00   2.36831486   0.01201144
6950.00   2.33088994   0.01172464
6952.00   2.31877613   0.01153834
6954.00   2.33371198   0.01099173
6956.00   2.34394562   0.01047462
6958.00   2.33394635   0.01038699
6960.00   2.31397796   0.01035958
6962.00   2.31371951   0.01026066
6964.00   2.32355142   0.01021341
6966.00   2.33825827   0.01022060
6968.00   2.36765766   0.01024996
6970.00   2.38549054   0.01030035
6972.00   2.39221585   0.01026407
6974.00   2.39213741   0.01039341
6976.00   2.37122655   0.01111524
6978.00   2.33101749   0.01219407
6980.00   2.31350946   0.01223561
6982.00   2.31002295   0.01127018
6984.00   2.30701900   0.01070060
6986.00   2.31127286   0.01057832
6988.00   2.32675326   0.01054788
6990.00   2.33700180   0.01049751
6992.00   2.33346248   0.01049679
6994.00   2.32542145   0.01043977
6996.00   2.31676209   0.01033230
6998.00   2.29741526   0.01027574
7000.00   2.25079632   0.01025245
7002.00   2.20976692   0.01028376
7004.00   2.19118953   0.01045124
7006.00   2.18568385   0.01092476
7008.00   2.19936556   0.01099234
7010.00   2.23549759   0.01068067
7012.00   2.26750779   0.01044471
7014.00   2.30417156   0.01036760
7016.00   2.33188069   0.01030910
7018.00   2.34413910   0.01024501
7020.00   2.34730172   0.01027400
7022.00   2.35420716   0.01027425
7024.00   2.35937417   0.01027261
7026.00   2.37032175   0.01027680
7028.00   2.38951170   0.01020862
7030.00   2.40470350   0.01024710
7032.00   2.41112733   0.01061311
7034.00   2.41906571   0.01119148
7036.00   2.42798650   0.01131210
7038.00   2.42191374   0.01105764
7040.00   2.41316521   0.01089579
7042.00   2.40178001   0.01068905
7044.00   2.39474022   0.01051709
7046.00   2.39024687   0.01040063
7048.00   2.37826490   0.01039312
7050.00   2.33873713   0.01046692
7052.00   2.28671277   0.01034571
7054.00   2.28068185   0.01072205
7056.00   2.30800581   0.01189230
7058.00   2.32965338   0.01246737
7060.00   2.34852099   0.01206525
7062.00   2.36749446   0.01119995
7064.00   2.40600014   0.01083660
7066.00   2.44042444   0.01053299
7068.00   2.43953395   0.01066269
7070.00   2.41852486   0.01154052
7072.00   2.39904785   0.01181902
7074.00   2.35709023   0.01121720
7076.00   2.34425795   0.01084948
7078.00   2.36563551   0.01128465
7080.00   2.37669563   0.01144054
7082.00   2.37819314   0.01129440
7084.00   2.38319397   0.01137973
7086.00   2.37997580   0.01130526
7088.00   2.36057031   0.01083893
7090.00   2.35843837   0.01050457
7092.00   2.37874365   0.01062535
7094.00   2.38999879   0.01082435
7096.00   2.37287986   0.01075421
7098.00   2.34099221   0.01050837
7100.00   2.33464479   0.01034804
7102.00   2.33850801   0.00989082
7104.00   2.34448409   0.01024539
7106.00   2.37720561   0.01205325
7108.00   2.40190065   0.01337925
7110.00   2.37531090   0.01303479
7112.00   2.31739533   0.01154478
7114.00   2.27654016   0.01078693
7116.00   2.23185468   0.01012593
7118.00   2.21207130   0.00978971
7120.00   2.22202969   0.00997064
7122.00   2.22866869   0.01016016
7124.00   2.23834431   0.01001968
7126.00   2.26120472   0.01014335
7128.00   2.26689661   0.01086577
7130.00   2.26050580   0.01185022
7132.00   2.24725294   0.01232879
7134.00   2.21329820   0.01276110
7136.00   2.20480251   0.01255500
7138.00   2.23261690   0.01153124
7140.00   2.25926399   0.01068205
7142.00   2.27012730   0.01029292
7144.00   2.27788150   0.01015038
7146.00   2.28155911   0.01008853
7148.00   2.27839363   0.01023987
7150.00   2.28295743   0.01026126
7152.00   2.29017341   0.01022532
7154.00   2.29353619   0.01020751
7156.00   2.29769433   0.01022627
7158.00   2.29323113   0.01025391
7160.00   2.29560733   0.01034566
7162.00   2.30527294   0.01046645
7164.00   2.31191218   0.01061299
7166.00   2.32124019   0.01089794
7168.00   2.31133461   0.01114448
7170.00   2.26161301   0.01107021
7172.00   2.20128131   0.01079070
7174.00   2.19095719   0.01067948
7176.00   2.20486122   0.01056487
7178.00   2.22531843   0.01061439
7180.00   2.27163982   0.01085150
7182.00   2.31148386   0.01110342
7184.00   2.33608174   0.01154654
7186.00   2.35567927   0.01223292
7188.00   2.35282469   0.01231917
7190.00   2.32932210   0.01189680
7192.00   2.30439246   0.01152711
7194.00   2.26851070   0.01102571
7196.00   2.23435843   0.01067609
7198.00   2.20569742   0.01059598
7200.00   2.19064158   0.01066037
7202.00   2.20185465   0.01069242
7204.00   2.24744117   0.01083766
7206.00   2.26796377   0.01078709
7208.00   2.27418423   0.01054774
7210.00   2.27779365   0.01037029
7212.00   2.28297651   0.01023235
7214.00   2.28876173   0.01014432
7216.00   2.29912448   0.01035918
7218.00   2.31128204   0.01094517
7220.00   2.32742369   0.01112555
7222.00   2.35274494   0.01107840
7224.00   2.36448395   0.01100182
7226.00   2.36194539   0.01087944
7228.00   2.34957528   0.01075264
7230.00   2.32974184   0.01066072
7232.00   2.31305099   0.01060131
7234.00   2.30113328   0.01119058
7236.00   2.28556478   0.01253069
7238.00   2.28822005   0.01313725
7240.00   2.31607187   0.01315703
7242.00   2.34061849   0.01291323
7244.00   2.35799456   0.01252572
7246.00   2.37510622   0.01202569
7248.00   2.39901757   0.01192837
7250.00   2.42954683   0.01210283
7252.00   2.45645368   0.01205589
7254.00   2.49457240   0.01190529
7256.00   2.49492979   0.01170684
7258.00   2.44181526   0.01135059
7260.00   2.39183927   0.01105860
7262.00   2.36882389   0.01090469
7264.00   2.35661733   0.01072900
7266.00   2.34786117   0.01076864
7268.00   2.34399498   0.01096408
7270.00   2.32995594   0.01163675
7272.00   2.30596519   0.01299166
7274.00   2.30660224   0.01371571
7276.00   2.32201838   0.01371588
7278.00   2.34720945   0.01330556
7280.00   2.35707986   0.01276372
7282.00   2.34730518   0.01186933
7284.00   2.34059715   0.01149347
7286.00   2.34477293   0.01174513
7288.00   2.35805392   0.01174833
7290.00   2.35683954   0.01150335
7292.00   2.35353160   0.01125538
7294.00   2.34159935   0.01107230
7296.00   2.30724025   0.01085996
7298.00   2.29594338   0.01079463
7300.00   2.30294979   0.01092053
7302.00   2.33094156   0.01101629
7304.00   2.37548125   0.01104073
7306.00   2.41787636   0.01110115
7308.00   2.44959235   0.01125269
7310.00   2.47390711   0.01145946
7312.00   2.49372804   0.01167858
7314.00   2.51295459   0.01199656
7316.00   2.52788162   0.01221623
7318.00   2.52599943   0.01228697
7320.00   2.51009727   0.01207997
7322.00   2.50001633   0.01197244
7324.00   2.49689484   0.01217368
7326.00   2.51196182   0.01212158
7328.00   2.54987037   0.01194083
7330.00   2.58079219   0.01182887
7332.00   2.60145843   0.01169207
7334.00   2.61089420   0.01146960
7336.00   2.63523996   0.01170641
7338.00   2.66415715   0.01235120
7340.00   2.69230199   0.01266501
7342.00   2.73162353   0.01290466
7344.00   2.73695755   0.01281657
7346.00   2.69660854   0.01225386
7348.00   2.66765153   0.01177368
7350.00   2.64569247   0.01146232
7352.00   2.62189543   0.01131900
7354.00   2.62130332   0.01149124
7356.00   2.63213575   0.01189839
7358.00   2.61774051   0.01198535
7360.00   2.58484519   0.01184139
7362.00   2.56478870   0.01180722
7364.00   2.53530574   0.01178134
7366.00   2.50494385   0.01180065
7368.00   2.49822855   0.01190814
7370.00   2.49802327   0.01210352
7372.00   2.49107921   0.01200807
7374.00   2.48804247   0.01164894
7376.00   2.48934519   0.01132912
7378.00   2.48048007   0.01101623
7380.00   2.46887445   0.01079672
7382.00   2.47613466   0.01078940
7384.00   2.48452830   0.01089803
7386.00   2.47419512   0.01096439
7388.00   2.45175302   0.01107693
7390.00   2.42804444   0.01111791
7392.00   2.39132714   0.01101549
7394.00   2.37249160   0.01105534
7396.00   2.36708283   0.01117807
7398.00   2.37157953   0.01125654
7400.00   2.38147318   0.01140306
7402.00   2.39462841   0.01157805
7404.00   2.38989663   0.01150313
7406.00   2.36979234   0.01114691
7408.00   2.35082817   0.01090796
7410.00   2.33050120   0.01067139
7412.00   2.31768894   0.01050770
7414.00   2.30801463   0.01045175
7416.00   2.30232966   0.01046867
7418.00   2.29128158   0.01055084
7420.00   2.27304804   0.01073874
7422.00   2.26387930   0.01086537
7424.00   2.26984012   0.01101512
7426.00   2.27350032   0.01104420
7428.00   2.27072585   0.01082579
7430.00   2.25820327   0.01060273
7432.00   2.24480629   0.01076750
7434.00   2.22885132   0.01120095
7436.00   2.22946584   0.01140430
7438.00   2.24182916   0.01163793
7440.00   2.25623918   0.01156556
7442.00   2.27113307   0.01099140
7444.00   2.27176714   0.01031800
7446.00   2.26197219   0.01031142
7448.00   2.24152946   0.01079036
7450.00   2.22392917   0.01102311
7452.00   2.19969475   0.01118734
7454.00   2.18784416   0.01124342
7456.00   2.18775785   0.01098111
7458.00   2.20334244   0.01039551
7460.00   2.21926022   0.01028006
7462.00   2.23081720   0.01052983
7464.00   2.24855137   0.01063819
7466.00   2.27535486   0.01063963
7468.00   2.31040072   0.01072463
7470.00   2.34582794   0.01094975
7472.00   2.37392938   0.01118663
7474.00   2.39803100   0.01137280
7476.00   2.40881956   0.01153360
7478.00   2.41106367   0.01148794
7480.00   2.40430808   0.01119428
7482.00   2.40059733   0.01105219
7484.00   2.39098239   0.01109163
7486.00   2.38464224   0.01119096
7488.00   2.38008237   0.01122866
7490.00   2.37475026   0.01128451
7492.00   2.37861514   0.01123321
7494.00   2.39110613   0.01102010
7496.00   2.39526975   0.01083862
7498.00   2.39433563   0.01073284
7500.00   2.39095974   0.01071395
7502.00   2.37891936   0.01061066
7504.00   2.35302103   0.01061304
7506.00   2.33103597   0.01081684
7508.00   2.30876553   0.01112819
7510.00   2.28474867   0.01129803
7512.00   2.24589574   0.01138329
7514.00   2.23767078   0.01148086
7516.00   2.25684571   0.01151981
7518.00   2.28156793   0.01179417
7520.00   2.30754745   0.01248829
7522.00   2.33443642   0.01319893
7524.00   2.33047223   0.01301850
7526.00   2.29403186   0.01191460
7528.00   2.27432728   0.01163551
7530.00   2.26285052   0.01209325
7532.00   2.26651788   0.01206132
7534.00   2.28165925   0.01141335
7536.00   2.29759097   0.01069972
7538.00   2.30727482   0.01054618
7540.00   2.31829166   0.01076361
7542.00   2.31635702   0.01079134
7544.00   2.29468369   0.01083306
7546.00   2.27332854   0.01078969
7548.00   2.25917029   0.01063160
7550.00   2.24963772   0.01051344
7552.00   2.24113894   0.01052383
7554.00   2.23376405   0.01058365
7556.00   2.23645639   0.01065683
7558.00   2.25813079   0.01081332
7560.00   2.26747334   0.01097268
7562.00   2.25880742   0.01103552
7564.00   2.23228872   0.01108389
7566.00   2.21040988   0.01129568
7568.00   2.20024943   0.01151979
7570.00   2.18850434   0.01175373
7572.00   2.16384155   0.01226004
7574.00   2.14622444   0.01250430
7576.00   2.16295975   0.01185834
7578.00   2.19496858   0.01074736
7580.00   2.20160162   0.01048093
7582.00   2.19038272   0.01082331
7584.00   2.18114984   0.01122258
7586.00   2.18164313   0.01191068
7588.00   2.14792770   0.01206291
7590.00   2.07349420   0.01150328
7592.00   1.97261906   0.01158625
7594.00   1.84258097   0.01224887
7596.00   1.70471036   0.01328318
7598.00   1.62798178   0.01545349
7600.00   1.57914197   0.01835031
7602.00   1.58266330   0.02085963
7604.00   1.64924151   0.02443106
7606.00   1.71204931   0.02533231
7608.00   1.87336928   0.02286619
7610.00   2.17252183   0.01926680
7612.00   2.29948306   0.01766347
7614.00   2.33069766   0.01727423
7616.00   2.29294014   0.01629282
7618.00   2.14845788   0.01474005
7620.00   2.00596613   0.01303008
7622.00   1.89243615   0.01256042
7624.00   1.83234447   0.01313564
7626.00   1.85162205   0.01391876
7628.00   1.93953925   0.01512393
7630.00   1.98224497   0.01556425
7632.00   2.01087999   0.01559562
7634.00   2.03249425   0.01548661
7636.00   2.03980863   0.01490368
7638.00   2.02954811   0.01405232
7640.00   2.02603978   0.01353787
7642.00   2.02105749   0.01320958
7644.00   2.00213909   0.01290847
7646.00   1.97457248   0.01275183
7648.00   1.96596068   0.01246728
7650.00   1.96299887   0.01193602
7652.00   1.94744718   0.01148903
7654.00   1.94575739   0.01132416
7656.00   1.94466060   0.01131312
7658.00   1.93747878   0.01126077
7660.00   1.93604684   0.01127244
7662.00   1.95719826   0.01124779
7664.00   1.99472851   0.01112574
7666.00   2.01679438   0.01105129
7668.00   2.05441642   0.01117097
7670.00   2.10093611   0.01133029
7672.00   2.13035071   0.01159656
7674.00   2.15787876   0.01229016
7676.00   2.17587233   0.01245418
7678.00   2.18428719   0.01197768
7680.00   2.17407990   0.01140018
7682.00   2.15254843   0.01119157
7684.00   2.13430756   0.01123444
7686.00   2.11162019   0.01120307
7688.00   2.08464146   0.01107685
7690.00   2.08519506   0.01100591
7692.00   2.11384714   0.01099560
7694.00   2.11499810   0.01104765
7696.00   2.09897399   0.01113414
7698.00   2.08982652   0.01118712
7700.00   2.06094646   0.01106042
7702.00   2.00775999   0.01071394
7704.00   1.99149108   0.01065390
7706.00   1.99818152   0.01069177
7708.00   2.01948559   0.01105583
7710.00   2.05846775   0.01186501
7712.00   2.09148663   0.01262053
7714.00   2.13274324   0.01306592
7716.00   2.17647088   0.01319728
7718.00   2.19826239   0.01312134
7720.00   2.21378350   0.01268172
7722.00   2.22373021   0.01257570
7724.00   2.21388245   0.01287907
7726.00   2.20450807   0.01313945
7728.00   2.22060084   0.01308110
7730.00   2.25331366   0.01300676
7732.00   2.26621020   0.01265906
7734.00   2.26743996   0.01174511
7736.00   2.26154947   0.01135528
7738.00   2.24541509   0.01144971
7740.00   2.22914243   0.01155049
7742.00   2.21956694   0.01158004
7744.00   2.19624281   0.01187980
7746.00   2.15780836   0.01290891
7748.00   2.13346481   0.01516248
7750.00   2.10581923   0.01552298
7752.00   2.07461804   0.01437575
7754.00   2.02354324   0.01359284
7756.00   1.97052836   0.01399376
7758.00   1.89470488   0.01363679
7760.00   1.79198396   0.01236354
7762.00   1.68970680   0.01114338
7764.00   1.62775105   0.01038176
7766.00   1.59517598   0.00990507
7768.00   1.56618196   0.00961610
7770.00   1.54312617   0.00970221
7772.00   1.52354145   0.00974986
7774.00   1.51449901   0.00981344
7776.00   1.51997715   0.00995595
7778.00   1.55557954   0.01032344
7780.00   1.61286008   0.01089783
7782.00   1.68266284   0.01116604
7784.00   1.78667611   0.01111623
7786.00   1.87444109   0.01120621
7788.00   1.92461383   0.01150787
7790.00   1.96711004   0.01181807
7792.00   2.01866537   0.01197463
7794.00   2.05547971   0.01204631
7796.00   2.08791924   0.01194374
7798.00   2.11726427   0.01152340
7800.00   2.15844685   0.01157111
7802.00   2.20193321   0.01223621
7804.00   2.22819215   0.01249741
7806.00   2.25155783   0.01233592
7808.00   2.26973748   0.01209224
7810.00   2.28052664   0.01197624
7812.00   2.28916609   0.01186897
7814.00   2.29245710   0.01197644
7816.00   2.28116608   0.01234229
7818.00   2.26454270   0.01262871
7820.00   2.25053537   0.01286333
7822.00   2.23058927   0.01299340
7824.00   2.19378185   0.01277613
7826.00   2.13437295   0.01225846
7828.00   2.09861702   0.01198927
7830.00   2.08723426   0.01196075
7832.00   2.08461297   0.01176336
7834.00   2.07457292   0.01143599
7836.00   2.06277055   0.01109318
7838.00   2.06296843   0.01096440
7840.00   2.07510507   0.01103416
7842.00   2.06959015   0.01114384
7844.00   2.04379499   0.01132157
7846.00   2.02943099   0.01153568
7848.00   2.02801472   0.01177111
7850.00   2.02855879   0.01201184
7852.00   2.03821737   0.01240877
7854.00   2.05565190   0.01298246
7856.00   2.07331663   0.01309845
7858.00   2.10161704   0.01271555
7860.00   2.11403197   0.01252086
7862.00   2.10264331   0.01276033
7864.00   2.08158714   0.01328129
7866.00   2.06241548   0.01334822
7868.00   2.04245150   0.01304406
7870.00   2.03731334   0.01275195
7872.00   2.04354775   0.01219201
7874.00   2.03984833   0.01179424
7876.00   2.02697760   0.01167666
7878.00   2.02201307   0.01174695
7880.00   2.01318669   0.01167204
7882.00   2.00429338   0.01158762
7884.00   2.01218355   0.01180435
7886.00   2.03237516   0.01228416
7888.00   2.03085250   0.01244087
7890.00   2.00915807   0.01237017
7892.00   1.98663813   0.01216911
7894.00   1.96829760   0.01177263
7896.00   1.95828706   0.01132312
7898.00   1.95270556   0.01106847
7900.00   1.96551883   0.01091720
7902.00   1.95618552   0.01073267
7904.00   1.91538930   0.01028128
7906.00   1.89887840   0.01080744
7908.00   1.93386906   0.01222792
7910.00   1.95665032   0.01350800
7912.00   1.94845152   0.01490540
7914.00   1.93047071   0.01601667
7916.00   1.91352916   0.01573358
7918.00   1.88634467   0.01426480
7920.00   1.89367688   0.01332192
7922.00   1.94769192   0.01228360
7924.00   1.98310012   0.01145228
7926.00   1.97960991   0.01123365
7928.00   1.95984828   0.01127207
7930.00   1.95973605   0.01118408
7932.00   1.96352631   0.01114238
7934.00   1.96479332   0.01102725
7936.00   1.96829307   0.01069811
7938.00   1.97287780   0.01068894
7940.00   1.97366083   0.01105253
7942.00   1.97913587   0.01139402
7944.00   1.98737514   0.01164793
7946.00   1.99555671   0.01185953
7948.00   1.99631065   0.01171289
7950.00   1.98761541   0.01101092
7952.00   1.99024588   0.01082166
7954.00   2.00912946   0.01100419
7956.00   2.01205826   0.01123261
7958.00   1.98754501   0.01155005
7960.00   1.95013809   0.01204935
7962.00   1.92931587   0.01227728
7964.00   1.91561097   0.01227438
7966.00   1.90449327   0.01222070
7968.00   1.89578283   0.01221642
7970.00   1.88920617   0.01235175
7972.00   1.88928604   0.01246068
7974.00   1.90347171   0.01266163
7976.00   1.93122464   0.01247976
7978.00   1.97653264   0.01182219
7980.00   1.98781294   0.01129990
7982.00   1.95861495   0.01083642
7984.00   1.95468426   0.01095450
7986.00   1.97233772   0.01158849
7988.00   1.97647196   0.01246112
7990.00   1.97205281   0.01327190
7992.00   1.95903778   0.01426058
7994.00   1.94801855   0.01424119
7996.00   1.92608875   0.01285521
7998.00   1.93696457   0.01185629
8000.00   1.96619236   0.01153161
8002.00   1.98561949   0.01151802
8004.00   1.99417877   0.01151573
8006.00   1.99626714   0.01165448
8008.00   1.98494476   0.01176734
8010.00   1.95466930   0.01201586
8012.00   1.93360072   0.01210709
8014.00   1.91981912   0.01175343
8016.00   1.90887749   0.01119118
8018.00   1.90037745   0.01126640
8020.00   1.90038443   0.01175516
8022.00   1.89115983   0.01186103
8024.00   1.87310272   0.01185049
8026.00   1.86476487   0.01179767
8028.00   1.86965537   0.01157416
8030.00   1.86990684   0.01127927
8032.00   1.87519914   0.01108019
8034.00   1.88907295   0.01095983
8036.00   1.87972182   0.01091579
8038.00   1.84858716   0.01097981
8040.00   1.84229845   0.01103293
8042.00   1.86328673   0.01107107
8044.00   1.88528991   0.01105490
8046.00   1.90390623   0.01120952
8048.00   1.91359085   0.01151738
8050.00   1.91520494   0.01143214
8052.00   1.91893578   0.01102390
8054.00   1.93256277   0.01088250
8056.00   1.95741051   0.01099287
8058.00   1.95971388   0.01103214
8060.00   1.95466417   0.01099003
8062.00   1.95017755   0.01103597
8064.00   1.93113846   0.01109186
8066.00   1.89429903   0.01119343
8068.00   1.88982743   0.01154647
8070.00   1.91776353   0.01227658
8072.00   1.92628026   0.01220069
8074.00   1.91339010   0.01125266
8076.00   1.89836037   0.01065092
8078.00   1.87255669   0.01047329
8080.00   1.82644445   0.01035703
8082.00   1.81630784   0.01036227
8084.00   1.83100611   0.01047297
8086.00   1.84553087   0.01068494
8088.00   1.86388463   0.01116557
8090.00   1.88378203   0.01173330
8092.00   1.89045596   0.01165315
8094.00   1.88502210   0.01108019
8096.00   1.88535035   0.01142081
8098.00   1.88876384   0.01217559
8100.00   1.90231705   0.01215325
8102.00   1.93967599   0.01127305
8104.00   1.94218773   0.01102050
8106.00   1.90528131   0.01089689
8108.00   1.87675458   0.01101367
8110.00   1.89279652   0.01159999
8112.00   1.92790914   0.01223224
8114.00   1.93752849   0.01214252
8116.00   1.93513465   0.01120445
8118.00   1.93303758   0.01136168
8120.00   1.91338933   0.01247637
8122.00   1.90728664   0.01304145
8124.00   1.92154461   0.01302188
8126.00   1.92806989   0.01272103
8128.00   1.91429591   0.01228707
8130.00   1.88424140   0.01144356
8132.00   1.87390733   0.01124541
8134.00   1.87833714   0.01173188
8136.00   1.87667030   0.01224772
8138.00   1.85641915   0.01242591
8140.00   1.80919385   0.01221110
8142.00   1.79478878   0.01208952
8144.00   1.80770624   0.01188603
8146.00   1.82628328   0.01189112
8148.00   1.85031778   0.01220791
8150.00   1.86359358   0.01252398
8152.00   1.86572987   0.01235988
8154.00   1.84727824   0.01173213
8156.00   1.82538217   0.01147186
8158.00   1.79603541   0.01137308
8160.00   1.79047352   0.01138464
8162.00   1.80536127   0.01156187
8164.00   1.82295740   0.01171851
8166.00   1.85273069   0.01179442
8168.00   1.88118398   0.01185000
8170.00   1.86412507   0.01204460
8172.00   1.81260264   0.01247736
8174.00   1.81316191   0.01296286
8176.00   1.85671997   0.01349257
8178.00   1.87844419   0.01400863
8180.00   1.88957286   0.01460775
8182.00   1.89244086   0.01535800
8184.00   1.87792528   0.01604985
8186.00   1.86886179   0.01627568
8188.00   1.87895483   0.01627154
8190.00   1.90350926   0.01604079
8192.00   1.89427650   0.01584091
8194.00   1.84731758   0.01546607
8196.00   1.82925075   0.01517407
8198.00   1.84704673   0.01480004
8200.00   1.87547642   0.01425214
8202.00   1.89467055   0.01379518
8204.00   1.92158264   0.01332645
8206.00   1.92301351   0.01293135
8208.00   1.88870496   0.01248855
8210.00   1.85952049   0.01250243
8212.00   1.83926034   0.01294216
8214.00   1.81872559   0.01304130
8216.00   1.81389755   0.01271675
8218.00   1.82193083   0.01216972
8220.00   1.80378222   0.01189106
8222.00   1.74657100   0.01164681
8224.00   1.72706336   0.01172365
8226.00   1.74936765   0.01220468
8228.00   1.80469978   0.01261259
8230.00   1.87690926   0.01265814
8232.00   1.95296806   0.01266023
8234.00   1.95758384   0.01276901
8236.00   1.90181226   0.01287396
8238.00   1.86981589   0.01269570
8240.00   1.83990699   0.01250427
8242.00   1.82219726   0.01239686
8244.00   1.82542914   0.01181871
8246.00   1.82065439   0.01131554
8248.00   1.79148191   0.01159562
8250.00   1.74329913   0.01230094
8252.00   1.73133552   0.01231000
8254.00   1.74322379   0.01198519
8256.00   1.76424026   0.01172182
8258.00   1.80996066   0.01115976
8260.00   1.86951375   0.01085361
8262.00   1.89664137   0.01104806
8264.00   1.90479571   0.01156394
8266.00   1.89326292   0.01165494
8268.00   1.84637302   0.01122536
8270.00   1.81734121   0.01113529
8272.00   1.80583286   0.01185838
8274.00   1.81642079   0.01311007
8276.00   1.84148967   0.01372457
8278.00   1.87230635   0.01412600
8280.00   1.88725895   0.01421682
8282.00   1.89716452   0.01382626
8284.00   1.89433545   0.01343724
8286.00   1.87530363   0.01338042
8288.00   1.86344457   0.01347321
8290.00   1.83615386   0.01367805
8292.00   1.78591937   0.01443613
8294.00   1.77166599   0.01471774
8296.00   1.77595174   0.01484555
8298.00   1.78640866   0.01459716
8300.00   1.82359082   0.01383618
8302.00   1.85833460   0.01274905
8304.00   1.84614348   0.01207698
8306.00   1.80698800   0.01185327
8308.00   1.78421342   0.01157845
8310.00   1.75565952   0.01135202
8312.00   1.74871445   0.01127842
8314.00   1.77427018   0.01143150
8316.00   1.79663283   0.01162039
8318.00   1.80504805   0.01181303
8320.00   1.80756104   0.01214529
8322.00   1.80178130   0.01238320
8324.00   1.78505540   0.01247801
8326.00   1.75157732   0.01233691
8328.00   1.69360459   0.01193433
8330.00   1.64670050   0.01152235
8332.00   1.60847694   0.01095714
8334.00   1.58361876   0.01087931
8336.00   1.56334269   0.01144603
8338.00   1.54455274   0.01237149
8340.00   1.54587960   0.01328531
8342.00   1.56623995   0.01456506
8344.00   1.58552819   0.01512742
8346.00   1.61198109   0.01488653
8348.00   1.64352936   0.01454246
8350.00   1.66420627   0.01417791
8352.00   1.68470377   0.01346511
8354.00   1.71397281   0.01315929
8356.00   1.75251132   0.01312080
8358.00   1.77575862   0.01272767
8360.00   1.78153825   0.01174749
8362.00   1.78402722   0.01139214
8364.00   1.80106932   0.01155177
8366.00   1.82611728   0.01177790
8368.00   1.82908428   0.01189627
8370.00   1.81632781   0.01193933
8372.00   1.79066968   0.01172520
8374.00   1.74124312   0.01103266
8376.00   1.70721585   0.01093128
8378.00   1.68826014   0.01127534
8380.00   1.67375636   0.01159682
8382.00   1.65268874   0.01158649
8384.00   1.62307256   0.01133233
8386.00   1.59718961   0.01117779
8388.00   1.57923722   0.01091371
8390.00   1.55805779   0.01103115
8392.00   1.52284223   0.01164198
8394.00   1.47757763   0.01240273
8396.00   1.42685407   0.01285668
8398.00   1.35946274   0.01306150
8400.00   1.28932375   0.01278659
8402.00   1.21253288   0.01193726
8404.00   1.14529359   0.01119977
8406.00   1.08447826   0.01037877
8408.00   1.01960862   0.00987178
8410.00   0.94756341   0.00991718
8412.00   0.86137021   0.01023705
8414.00   0.78364289   0.01024750
8416.00   0.71231645   0.01013206
8418.00   0.65237764   0.00983621
8420.00   0.59974229   0.00896991
8422.00   0.54952088   0.00880239
8424.00   0.50179185   0.00964460
8426.00   0.44633083   0.01078458
8428.00   0.39709823   0.01133423
8430.00   0.36230190   0.01184945
8432.00   0.33571410   0.01158397
8434.00   0.31176123   0.01010415
8436.00   0.28576608   0.00864344
8438.00   0.28051612   0.00779615
8440.00   0.29226097   0.00747466
8442.00   0.29566404   0.00748580
8444.00   0.30254360   0.00820489
8446.00   0.31033550   0.00844887
8448.00   0.31990969   0.00839511
8450.00   0.31838784   0.00819575
8452.00   0.30827613   0.00806688
8454.00   0.30293463   0.00806069
8456.00   0.31281736   0.00814705
8458.00   0.34207593   0.00842021
8460.00   0.36244552   0.00892825
8462.00   0.38371578   0.00977777
8464.00   0.39011268   0.01011635
8466.00   0.37623706   0.01001990
8468.00   0.36861537   0.00965118
8470.00   0.37892826   0.00904513
8472.00   0.39692816   0.00824605
8474.00   0.41574189   0.00785019
8476.00   0.44138467   0.00776057
8478.00   0.46197855   0.00770023
8480.00   0.47729644   0.00761926
8482.00   0.49241182   0.00769451
8484.00   0.50306386   0.00821257
8486.00   0.50512551   0.00898174
8488.00   0.53233260   0.00917922
8490.00   0.58931968   0.00891159
8492.00   0.63262048   0.00889225
8494.00   0.66336125   0.00902250
8496.00   0.70005742   0.00928424
8498.00   0.74492273   0.00961479
8500.00   0.78260344   0.00990411
8502.00   0.83935010   0.01015960
8504.00   0.91759691   0.01036918
8506.00   0.97556952   0.01041086
8508.00   1.02223620   0.01032218
8510.00   1.08408189   0.01028055
8512.00   1.15566021   0.01013904
8514.00   1.21079552   0.00996471
8516.00   1.27030385   0.01004792
8518.00   1.34047234   0.01038093
8520.00   1.40662932   0.01053087
8522.00   1.46892387   0.01058725
8524.00   1.53802913   0.01066589
8526.00   1.61379868   0.01077101
8528.00   1.70001924   0.01091279
8530.00   1.79262453   0.01111599
8532.00   1.87533700   0.01133888
8534.00   1.95115042   0.01136403
8536.00   2.02383685   0.01139394
8538.00   2.10624474   0.01232366
8540.00   2.19244242   0.01446111
8542.00   2.28719163   0.01501882
8544.00   2.40009701   0.01465285
8546.00   2.49666774   0.01434916
8548.00   2.55399668   0.01389204
8550.00   2.59587657   0.01328175
8552.00   2.62340999   0.01306247
8554.00   2.62969470   0.01313425
8556.00   2.61564136   0.01305202
8558.00   2.59377360   0.01308846
8560.00   2.56137753   0.01326185
8562.00   2.50592685   0.01326182
8564.00   2.42918468   0.01294048
8566.00   2.35092652   0.01292296
8568.00   2.26634347   0.01323688
8570.00   2.16763854   0.01323455
8572.00   2.04515469   0.01271015
8574.00   1.93078536   0.01212534
8576.00   1.82946426   0.01160245
8578.00   1.72701579   0.01084493
8580.00   1.63238215   0.01067746
8582.00   1.55068851   0.01122910
8584.00   1.46928799   0.01141922
8586.00   1.37614983   0.01111748
8588.00   1.29731625   0.01072795
8590.00   1.25243068   0.01072171
8592.00   1.22136050   0.01093600
8594.00   1.18118435   0.01089244
8596.00   1.14790368   0.01075259
8598.00   1.13372654   0.01058598
8600.00   1.13456225   0.01027965
8602.00   1.13842243   0.01002349
8604.00   1.15994710   0.01002377
8606.00   1.18434793   0.01021308
8608.00   1.19654858   0.01031452
8610.00   1.20547646   0.01026601
8612.00   1.21376652   0.01079123
8614.00   1.21669543   0.01191404
8616.00   1.22283155   0.01272973
8618.00   1.23280293   0.01317434
8620.00   1.25422674   0.01339250
8622.00   1.28863531   0.01342127
8624.00   1.32252252   0.01309770
8626.00   1.33674890   0.01315135
8628.00   1.33464140   0.01349702
8630.00   1.35107929   0.01364902
8632.00   1.37210190   0.01357393
8634.00   1.42100883   0.01339144
8636.00   1.49849361   0.01305384
8638.00   1.57696486   0.01277293
8640.00   1.64212167   0.01291848
8642.00   1.70222545   0.01327220
8644.00   1.77748650   0.01367733
8646.00   1.86022288   0.01437105
8648.00   1.95993119   0.01482473
8650.00   2.07633555   0.01495136
8652.00   2.18728387   0.01519839
8654.00   2.27277470   0.01559383
8656.00   2.33342099   0.01592775
8658.00   2.41259742   0.01598733
8660.00   2.50029504   0.01571417
8662.00   2.59838533   0.01589362
8664.00   2.71668994   0.01649024
8666.00   2.83024037   0.01692379
8668.00   2.90799820   0.01716973
8670.00   2.96695411   0.01700508
8672.00   3.05811870   0.01673410
8674.00   3.17308819   0.01628845
8676.00   3.28400588   0.01643215
8678.00   3.39680803   0.01704267
8680.00   3.48783720   0.01743374
8682.00   3.55375004   0.01717289
8684.00   3.58836281   0.01608897
8686.00   3.65685105   0.01588432
8688.00   3.75454199   0.01638106
8690.00   3.85961592   0.01667042
8692.00   3.98681879   0.01667572
8694.00   4.06802344   0.01657834
8696.00   4.10536706   0.01656207
8698.00   4.09477580   0.01648635
8700.00   4.06748986   0.01653244
8702.00   4.02080810   0.01680273
8704.00   3.98457944   0.01674147
8706.00   3.94569755   0.01618687
8708.00   3.91323030   0.01585334
8710.00   3.88734603   0.01593464
8712.00   3.85042429   0.01619815
8714.00   3.80110860   0.01654551
8716.00   3.73995459   0.01704771
8718.00   3.68469238   0.01690894
8720.00   3.62436831   0.01608637
8722.00   3.59033847   0.01559151
8724.00   3.58570993   0.01544954
8726.00   3.57929611   0.01549983
8728.00   3.56577480   0.01558203
8730.00   3.55219710   0.01587032
8732.00   3.53184140   0.01638543
8734.00   3.50985122   0.01712427
8736.00   3.49018753   0.01699728
8738.00   3.46376610   0.01591065
8740.00   3.43206906   0.01539316
8742.00   3.42015421   0.01527444
8744.00   3.42011189   0.01525158
8746.00   3.39872837   0.01527484
8748.00   3.36234784   0.01524480
8750.00   3.30880141   0.01555079
8752.00   3.23771667   0.01645701
8754.00   3.16866720   0.01726725
8756.00   3.07299173   0.01728542
8758.00   2.96635711   0.01672365
8760.00   2.91648948   0.01686730
8762.00   2.91577339   0.01745947
8764.00   2.89221704   0.01766301
8766.00   2.86066794   0.01756756
8768.00   2.81521177   0.01746303
8770.00   2.76147783   0.01741533
8772.00   2.69967997   0.01744301
8774.00   2.64259601   0.01736893
8776.00   2.60218239   0.01719715
8778.00   2.55781472   0.01680440
8780.00   2.50309134   0.01609050
8782.00   2.47540426   0.01554321
8784.00   2.49755347   0.01519930
8786.00   2.49854982   0.01495470
8788.00   2.47228873   0.01485336
8790.00   2.45320857   0.01502358
8792.00   2.42082381   0.01481255
8794.00   2.37347138   0.01428033
8796.00   2.32542121   0.01383896
8798.00   2.27734864   0.01349006
8800.00   2.22920978   0.01323977
8802.00   2.17283940   0.01304558
8804.00   2.11542809   0.01303880
8806.00   2.09420753   0.01323880
8808.00   2.09955740   0.01355106
8810.00   2.09152102   0.01355829
8812.00   2.07896990   0.01316593
8814.00   2.06751359   0.01315357
8816.00   2.04607201   0.01332010
8818.00   2.01818728   0.01404840
8820.00   2.00447243   0.01559235
8822.00   1.99635607   0.01773565
8824.00   1.99580377   0.01910058
8826.00   2.00820363   0.02039362
8828.00   2.01222157   0.02062706
8830.00   2.00890344   0.01966137
8832.00   2.00633520   0.01843007
8834.00   1.98550600   0.01740058
8836.00   1.93791401   0.01629020
8838.00   1.90806729   0.01541244
8840.00   1.88465762   0.01467335
8842.00   1.87072486   0.01426026
8844.00   1.87125695   0.01441600
8846.00   1.86224455   0.01441387
8848.00   1.82933402   0.01409802
8850.00   1.79180259   0.01372012
8852.00   1.76382017   0.01335775
8854.00   1.72487432   0.01288140
8856.00   1.70426786   0.01273972
8858.00   1.71383494   0.01285095
8860.00   1.73318064   0.01318228
8862.00   1.73884553   0.01411311
8864.00   1.73541564   0.01541887
8866.00   1.72306168   0.01575701
8868.00   1.69915313   0.01553265
8870.00   1.69292140   0.01505196
8872.00   1.70260787   0.01378547
8874.00   1.71021521   0.01299053
8876.00   1.71498400   0.01313633
8878.00   1.72029036   0.01394595
8880.00   1.73310953   0.01516245
8882.00   1.75772786   0.01697173
8884.00   1.77468574   0.01759153
8886.00   1.78792500   0.01754449
8888.00   1.78900671   0.01704130
8890.00   1.77531183   0.01575835
8892.00   1.77723265   0.01452821
8894.00   1.80071980   0.01413550
8896.00   1.83410418   0.01434521
8898.00   1.84607756   0.01457660
8900.00   1.84596443   0.01516255
8902.00   1.82208097   0.01541378
8904.00   1.76851147   0.01535856
8906.00   1.72707850   0.01507438
8908.00   1.68382370   0.01456682
8910.00   1.64021510   0.01392228
8912.00   1.62453157   0.01482664
8914.00   1.62643057   0.01713794
8916.00   1.61938816   0.01859882
8918.00   1.62075675   0.02002678
8920.00   1.60833925   0.02026678
8922.00   1.55362225   0.01889181
8924.00   1.48608446   0.01620726
8926.00   1.45289558   0.01440274
8928.00   1.42241913   0.01330925
8930.00   1.40053272   0.01315517
8932.00   1.39775521   0.01417496
8934.00   1.40578526   0.01463863
8936.00   1.39450353   0.01512627
8938.00   1.38346148   0.01531047
8940.00   1.40164924   0.01474783
8942.00   1.41206014   0.01409007
8944.00   1.40871888   0.01400248
8946.00   1.39682370   0.01414277
8948.00   1.40713370   0.01413379
8950.00   1.43483347   0.01416910
8952.00   1.45580846   0.01465199
8954.00   1.45780236   0.01547507
8956.00   1.45108938   0.01633733
8958.00   1.42795277   0.01639579
8960.00   1.37519902   0.01586131
8962.00   1.37288892   0.01530594
8964.00   1.43619031   0.01445999
8966.00   1.48399317   0.01382946
8968.00   1.50951660   0.01359405
8970.00   1.53835928   0.01363013
8972.00   1.55683833   0.01355162
8974.00   1.56293035   0.01336522
8976.00   1.56792700   0.01348726
8978.00   1.57176244   0.01382835
8980.00   1.56727093   0.01446999
8982.00   1.55269921   0.01551889
8984.00   1.54473364   0.01667550
8986.00   1.55711228   0.01705325
8988.00   1.60096860   0.01659649
8990.00   1.65183395   0.01643781
8992.00   1.72836328   0.01629570
8994.00   1.73792052   0.01645577
8996.00   1.68092585   0.01688023
8998.00   1.63881367   0.01743084
9000.00   1.62907940   0.01771093
9002.00   1.63263029   0.01760396
9004.00   1.63644916   0.01740432
9006.00   1.64837968   0.01701515
9008.00   1.66285360   0.01656176
9010.00   1.67888379   0.01583125
9012.00   1.69531155   0.01545252
9014.00   1.71836066   0.01540029
9016.00   1.73441094   0.01539876
9018.00   1.71869189   0.01529723
9020.00   1.66805816   0.01516530
9022.00   1.64464509   0.01503490
9024.00   1.63760930   0.01481928
9026.00   1.65868086   0.01477743
9028.00   1.70111454   0.01499655
9030.00   1.73329371   0.01529501
9032.00   1.73529059   0.01526024
9034.00   1.71875262   0.01492948
9036.00   1.67521966   0.01462726
9038.00   1.58880955   0.01424417
9040.00   1.53146774   0.01405340
9042.00   1.50069642   0.01397316
9044.00   1.46852708   0.01396031
9046.00   1.42715114   0.01393336
9048.00   1.38676101   0.01374116
9050.00   1.35549098   0.01358253
9052.00   1.32518804   0.01345634
9054.00   1.29369789   0.01342979
9056.00   1.27437967   0.01322497
9058.00   1.26068223   0.01326963
9060.00   1.23943847   0.01407855
9062.00   1.24714714   0.01497714
9064.00   1.24656010   0.01525686
9066.00   1.23139077   0.01551952
9068.00   1.21089941   0.01555316
9070.00   1.19974256   0.01490831
9072.00   1.18679780   0.01407050
9074.00   1.16981834   0.01373604
9076.00   1.16685855   0.01370288
9078.00   1.14402229   0.01372845
9080.00   1.10039639   0.01384862
9082.00   1.06624436   0.01377387
9084.00   1.03525117   0.01352648
9086.00   1.01131579   0.01345600
9088.00   1.00509134   0.01336332
9090.00   1.01800129   0.01319357
9092.00   1.02323356   0.01305780
9094.00   1.02722514   0.01290115
9096.00   1.02931163   0.01286493
9098.00   1.02229375   0.01285738
9100.00   1.02914065   0.01302272
9102.00   1.05084795   0.01350878
9104.00   1.10259902   0.01416230
9106.00   1.18086886   0.01449438
9108.00   1.26046962   0.01445172
9110.00   1.29379386   0.01427414
9112.00   1.29369146   0.01378632
9114.00   1.32902509   0.01399204
9116.00   1.38711089   0.01502340
9118.00   1.43988609   0.01557797
9120.00   1.51372033   0.01579595
9122.00   1.59679466   0.01590772
9124.00   1.62964988   0.01586170
9126.00   1.62396139   0.01571852
9128.00   1.64407778   0.01591512
9130.00   1.67255002   0.01642620
9132.00   1.72939754   0.01675938
9134.00   1.82296419   0.01704354
9136.00   1.90275717   0.01710640
9138.00   1.92300403   0.01693836
9140.00   1.90452904   0.01660690
9142.00   1.87958109   0.01636532
9144.00   1.83625394   0.01603740
9146.00   1.77952546   0.01590439
9148.00   1.69733196   0.01609899
9150.00   1.63841593   0.01635392
9152.00   1.62845409   0.01651577
9154.00   1.65727657   0.01670880
9156.00   1.65619016   0.01655876
9158.00   1.64823890   0.01609195
9160.00   1.61563909   0.01559257
9162.00   1.55513728   0.01480794
9164.00   1.48770481   0.01442034
9166.00   1.42701858   0.01473351
9168.00   1.38144451   0.01506747
9170.00   1.38098407   0.01510542
9172.00   1.42451167   0.01507757
9174.00   1.46929425   0.01505804
9176.00   1.53444993   0.01480951
9178.00   1.56501693   0.01480744
9180.00   1.56923378   0.01512103
9182.00   1.57570916   0.01556521
9184.00   1.59249634   0.01564610
9186.00   1.61136073   0.01550062
9188.00   1.59074914   0.01525333
9190.00   1.52339464   0.01469595
9192.00   1.47685766   0.01431044
9194.00   1.43450743   0.01440485
9196.00   1.39839917   0.01494610
9198.00   1.41222620   0.01526306
9200.00   1.46748775   0.01552591
9202.00   1.48023623   0.01550440
9204.00   1.47084647   0.01504136
9206.00   1.46092051   0.01500598
9208.00   1.43785822   0.01567488
9210.00   1.38699079   0.01611749
9212.00   1.34619218   0.01624535
9214.00   1.32974136   0.01619795
9216.00   1.31159604   0.01568394
9218.00   1.29054582   0.01454847
9220.00   1.27790272   0.01478224
9222.00   1.28637511   0.01651852
9224.00   1.29501289   0.01730450
9226.00   1.29429585   0.01753496
9228.00   1.31146932   0.01733050
9230.00   1.31077808   0.01623719
9232.00   1.28130120   0.01409425
9234.00   1.25417411   0.01334560
9236.00   1.22657341   0.01410064
9238.00   1.23099774   0.01451457
9240.00   1.25667840   0.01473209
9242.00   1.30498147   0.01500043
9244.00   1.36119217   0.01509179
9246.00   1.42655921   0.01489564
9248.00   1.48064071   0.01495758
9250.00   1.53841430   0.01533401
9252.00   1.57562757   0.01558039
9254.00   1.57905179   0.01542160
9256.00   1.57204139   0.01550725
9258.00   1.58467042   0.01620280
9260.00   1.61134464   0.01723230
9262.00   1.64588982   0.01772076
9264.00   1.70408612   0.01795684
9266.00   1.71255344   0.01760308
9268.00   1.65350914   0.01638576
9270.00   1.61317360   0.01590650
9272.00   1.62069482   0.01637848
9274.00   1.63568628   0.01724987
9276.00   1.63874894   0.01766022
9278.00   1.64371699   0.01795222
9280.00   1.63499945   0.01803586
9282.00   1.59863728   0.01786267
9284.00   1.58794588   0.01769478
9286.00   1.58336705   0.01744061
9288.00   1.56010592   0.01722140
9290.00   1.54986197   0.01745517
9292.00   1.54203892   0.01793812
9294.00   1.53642696   0.01830300
9296.00   1.52661610   0.01835054
9298.00   1.54566020   0.01906879
9300.00   1.58531207   0.02022129
9302.00   1.62384945   0.02201564
9304.00   1.63864690   0.02460765
9306.00   1.63828039   0.02780012
9308.00   1.63447446   0.03059656
9310.00   1.62017077   0.03354234
9312.00   1.59145379   0.03557993
9314.00   1.55085534   0.03724788
9316.00   1.56457019   0.03815489
9318.00   1.60580444   0.03777377
9320.00   1.64276981   0.03675757
9322.00   1.62588751   0.03630668
9324.00   1.56355798   0.03609940
9326.00   1.50079340   0.03565287
9328.00   1.41859496   0.03540887
9330.00   1.38840890   0.03345596
9332.00   1.39256769   0.03035541
9334.00   1.37106508   0.02809430
9336.00   1.34445041   0.02829262
9338.00   1.33536756   0.03073575
9340.00   1.35472351   0.03107235
9342.00   1.37931108   0.02946238
9344.00   1.39048380   0.02813379
9346.00   1.48361504   0.02718518
9348.00   1.56424874   0.02613801
9350.00   1.43865770   0.02625512
9352.00   1.17281270   0.02694185
9354.00   1.14276403   0.02633587
9356.00   1.35016108   0.02404828
9358.00   1.45562071   0.02353709
9360.00   1.45388287   0.02411460
9362.00   1.37172544   0.02554499
9364.00   1.31941885   0.02731884
9366.00   1.30145270   0.02893408
9368.00   1.39221054   0.03413628
9370.00   1.64631230   0.04247038
9372.00   1.73767465   0.04762449
9374.00   1.58817214   0.05112837
9376.00   1.43321329   0.05174919
9378.00   1.42011088   0.04830835
9380.00   1.44582057   0.04075556
9382.00   1.46902156   0.03541828
9384.00   1.51880658   0.03009572
9386.00   1.53765267   0.02585818
9388.00   1.53883231   0.02367698
9390.00   1.51418072   0.02235806
9392.00   1.42715496   0.02129922
9394.00   1.33201087   0.02108331
9396.00   1.28592569   0.02125063
9398.00   1.24967480   0.02186328
9400.00   1.21952850   0.02221720
9402.00   1.21980476   0.02274929
9404.00   1.22325879   0.02295670
9406.00   1.18105441   0.02253060
9408.00   1.11501557   0.02210563
9410.00   1.12482780   0.02220360
9412.00   1.18906415   0.02274894
9414.00   1.22924876   0.02345950
9416.00   1.27245146   0.02454689
9418.00   1.29480910   0.02514034
9420.00   1.26086348   0.02542514
9422.00   1.23111743   0.02545166
9424.00   1.27811366   0.02541775
9426.00   1.36576182   0.02518290
9428.00   1.46203166   0.02553219
9430.00   1.63292277   0.02601587
9432.00   1.68201232   0.02784248
9434.00   1.53416020   0.03073199
9436.00   1.36449993   0.03383831
9438.00   1.31015420   0.03772118
9440.00   1.34326088   0.04153014
9442.00   1.46277463   0.04093947
9444.00   1.70157403   0.03648261
9446.00   1.80315304   0.03312833
9448.00   1.77723366   0.02963176
9450.00   1.73360157   0.02796984
9452.00   1.67708796   0.02931539
9454.00   1.65751803   0.03212859
9456.00   1.66400415   0.03367032
9458.00   1.66544086   0.03508241
9460.00   1.64097834   0.03474421
9462.00   1.60107571   0.03204731
9464.00   1.57604808   0.02999479
9466.00   1.56063163   0.02850327
9468.00   1.55212480   0.02778622
9470.00   1.54433560   0.02885278
9472.00   1.53850681   0.03106482
9474.00   1.52392954   0.03298708
9476.00   1.50281227   0.03608583
9478.00   1.49204499   0.03691012
9480.00   1.48197609   0.03435133
9482.00   1.47468936   0.03048735
9484.00   1.45941168   0.02719271
9486.00   1.39783120   0.02320762
9488.00   1.35286254   0.02133467
9490.00   1.30388421   0.02117666
9492.00   1.29362959   0.02259970
9494.00   1.30631971   0.02621505
9496.00   1.37504512   0.02955963
9498.00   1.46988004   0.03196806
9500.00   1.54093874   0.03379859
9502.00   1.58936018   0.03327225
9504.00   1.62988073   0.03029043
9506.00   1.62982935   0.02806209
9508.00   1.58492786   0.02611837
9510.00   1.52791017   0.02483443
9512.00   1.41433650   0.02392447
9514.00   1.29391938   0.02355567
9516.00   1.25986099   0.02456394
9518.00   1.25387037   0.02663029
9520.00   1.31216395   0.02860997
9522.00   1.48972011   0.03163400
9524.00   1.60938400   0.03291930
9526.00   1.62770146   0.03167620
9528.00   1.62260085   0.02934026
9530.00   1.61226648   0.02779681
9532.00   1.55817348   0.02626253
9534.00   1.49005908   0.02493771
9536.00   1.39018756   0.02365805
9538.00   1.31818765   0.02349457
9540.00   1.25014961   0.02446042
9542.00   1.22955203   0.02539995
9544.00   1.29551822   0.02670929
9546.00   1.42685860   0.02817138
9548.00   1.43838209   0.02993551
9550.00   1.36375666   0.03249543
9552.00   1.34477931   0.03445010
9554.00   1.37194496   0.03628002
9556.00   1.41654164   0.03610975
9558.00   1.50701863   0.03376828
9560.00   1.59892499   0.03115272
9562.00   1.61434817   0.03229253
9564.00   1.58948016   0.03670511
9566.00   1.67253709   0.03793875
9568.00   1.88889468   0.03638546
9570.00   2.02868074   0.03428857
9572.00   2.09241152   0.03330152
9574.00   2.03953147   0.03247955
9576.00   1.91136962   0.03144138
9578.00   1.71663487   0.03011403
9580.00   1.63161772   0.02856539
9582.00   1.63104075   0.02642043
9584.00   1.62399125   0.02588922
9586.00   1.58875817   0.02673159
9588.00   1.53278500   0.02735338
9590.00   1.50702947   0.02724640
9592.00   1.49096519   0.02672996
9594.00   1.49147195   0.02626096
9596.00   1.53680611   0.02565621
9598.00   1.51575130   0.02500296
9600.00   1.38699633   0.02413585
9602.00   1.26788354   0.02349725
9604.00   1.20183301   0.02337714
9606.00   1.16377705   0.02345231
9608.00   1.16429389   0.02315591
9610.00   1.20328903   0.02261114
9612.00   1.20780230   0.02254432
9614.00   1.19468725   0.02299972
9616.00   1.17624831   0.02340154
9618.00   1.12465596   0.02370451
9620.00   1.08427912   0.02402138
9622.00   1.09714174   0.02422257
9624.00   1.14233786   0.02436490
9626.00   1.19565088   0.02446119
9628.00   1.30341542   0.02467825
9630.00   1.33123100   0.02434789
9632.00   1.24869770   0.02327118
9634.00   1.16881931   0.02220295
9636.00   1.16068012   0.02181912
9638.00   1.18591321   0.02197192
9640.00   1.21746308   0.02229654
9642.00   1.26932579   0.02295835
9644.00   1.30563259   0.02341081
9646.00   1.35208338   0.02388844
9648.00   1.38382119   0.02417865
9650.00   1.35108554   0.02415587
9652.00   1.28769040   0.02399047
9654.00   1.26873571   0.02410547
9656.00   1.27087659   0.02420137
9658.00   1.26196885   0.02470611
9660.00   1.24461812   0.02596601
9662.00   1.22071940   0.02711658
9664.00   1.21692187   0.02745974
9666.00   1.25704783   0.02720454
9668.00   1.31158930   0.02696836
9670.00   1.40209866   0.02678650
9672.00   1.44521409   0.02627029
9674.00   1.44497091   0.02490210
9676.00   1.41862518   0.02373269
9678.00   1.38991916   0.02382088
9680.00   1.37107289   0.02449511
9682.00   1.39240479   0.02482312
9684.00   1.43986809   0.02541323
9686.00   1.46106857   0.02565602
9688.00   1.47378445   0.02536063
9690.00   1.48808593   0.02522700
9692.00   1.47146243   0.02566660
9694.00   1.44492501   0.02680021
9696.00   1.45958894   0.02751393
9698.00   1.47953540   0.02808474
9700.00   1.46840560   0.02899446
9702.00   1.44675803   0.03022599
9704.00   1.43426126   0.02957607
9706.00   1.39954138   0.02675290
9708.00   1.35132760   0.02500390
9710.00   1.34717071   0.02453821
9712.00   1.37655514   0.02554170
9714.00   1.37995070   0.02635734
9716.00   1.37973052   0.02738113
9718.00   1.35269684   0.02929080
9720.00   1.25638241   0.03367276
9722.00   1.23932242   0.03418079
9724.00   1.32432938   0.03101426
9726.00   1.38252896   0.02753233
9728.00   1.37208897   0.02629117
9730.00   1.32691163   0.02628055
9732.00   1.31497997   0.02653829
9734.00   1.31812364   0.02783602
9736.00   1.34242517   0.02843673
9738.00   1.36335796   0.02841317
9740.00   1.35021710   0.02781583
9742.00   1.34239656   0.02713552
9744.00   1.33022708   0.02634315
9746.00   1.29752505   0.02543503
9748.00   1.23829740   0.02407341
9750.00   1.20716232   0.02332505
9752.00   1.19067222   0.02354421
9754.00   1.20366156   0.02387224
9756.00   1.21665120   0.02370862
9758.00   1.19147843   0.02324596
9760.00   1.21548045   0.02317436
9762.00   1.29322469   0.02338653
9764.00   1.32980919   0.02351486
9766.00   1.29754579   0.02344781
9768.00   1.27783579   0.02346344
9770.00   1.30248332   0.02386729
9772.00   1.31855732   0.02426875
9774.00   1.26142877   0.02394862
9776.00   1.14510882   0.02323416
9778.00   1.10494238   0.02416223
9780.00   1.12900311   0.02681208
9782.00   1.15561450   0.02813136
9784.00   1.19929188   0.02922385
9786.00   1.26052904   0.03050257
9788.00   1.29851204   0.03122373
9790.00   1.31251174   0.03182030
9792.00   1.31101692   0.03211122
9794.00   1.29498529   0.03201933
9796.00   1.28550309   0.03160702
9798.00   1.24819225   0.03105329
9800.00   1.21440369   0.03043623
9802.00   1.22849250   0.02982833
9804.00   1.25823826   0.02916288
9806.00   1.27682143   0.02845066
9808.00   1.31272250   0.02747575
9810.00   1.29267281   0.02782206
9812.00   1.18100709   0.03019140
9814.00   1.09493661   0.03074065
9816.00   1.05948997   0.02933395
9818.00   1.05628240   0.02743193
9820.00   1.10081971   0.02619808
9822.00   1.20810747   0.02509827
9824.00   1.26040345   0.02488562
9826.00   1.26685840   0.02604057
9828.00   1.24987221   0.02641730
9830.00   1.22447127   0.02599171
9832.00   1.19635803   0.02525826
9834.00   1.18667203   0.02491923
9836.00   1.19306070   0.02467114
9838.00   1.18910325   0.02489406
9840.00   1.16578823   0.02554800
9842.00   1.15736908   0.02643570
9844.00   1.18927687   0.02775263
9846.00   1.24101406   0.02912482
9848.00   1.25491160   0.02966562
9850.00   1.25299090   0.02958392
9852.00   1.23102438   0.02888859
9854.00   1.16953063   0.02704678
9856.00   1.13268119   0.02593356
9858.00   1.13556916   0.02549841
9860.00   1.15692496   0.02583713
9862.00   1.18149924   0.02711326
9864.00   1.24077380   0.02938966
9866.00   1.28170258   0.03230608
9868.00   1.30848294   0.03632324
9870.00   1.31317252   0.03846213
9872.00   1.32615131   0.03952733
9874.00   1.31617910   0.03919183
9876.00   1.26615256   0.03686118
9878.00   1.22693008   0.03311324
9880.00   1.20235294   0.03107031
9882.00   1.18347597   0.02983154
9884.00   1.16830504   0.02912255
9886.00   1.16299081   0.02919952
9888.00   1.15969491   0.02965892
9890.00   1.15302300   0.03055849
9892.00   1.11224738   0.03151146
9894.00   1.09410155   0.03198344
9896.00   1.09671968   0.03231145
9898.00   1.08334956   0.03180592
9900.00   1.03383842   0.02956230
9902.00   1.03696430   0.02865988
9904.00   1.11072394   0.02982894
9906.00   1.19878060   0.03251024
9908.00   1.23632807   0.03541462
9910.00   1.25243717   0.03895179
9912.00   1.23443067   0.04033090
9914.00   1.15614080   0.04021966
9916.00   1.11417136   0.03925095
9918.00   1.13904205   0.03755118
9920.00   1.17117196   0.03620662
9922.00   1.16624767   0.03463560
9924.00   1.16961062   0.03274974
9926.00   1.18116063   0.03210787
9928.00   1.19826794   0.03231014
9930.00   1.20741463   0.03286455
9932.00   1.21941066   0.03396470
9934.00   1.19912541   0.03550122
9936.00   1.17607695   0.03685252
9938.00   1.18591225   0.03824929
9940.00   1.18832219   0.04082187
9942.00   1.18240368   0.04436612
9944.00   1.19092739   0.04611156
9946.00   1.22287768   0.04635623
9948.00   1.24651879   0.04646776
9950.00   1.27132773   0.04646181
9952.00   1.27588004   0.04659437
9954.00   1.24745780   0.04712577
9956.00   1.20283312   0.04783905
9958.00   1.19147170   0.04780928
9960.00   1.19537592   0.04720641
9962.00   1.19967306   0.04643460
9964.00   1.23795545   0.04542300
9966.00   1.28594702   0.04457165
9968.00   1.28092641   0.04323458
9970.00   1.26164019   0.04072515
9972.00   1.19991231   0.03887056
9974.00   1.06251478   0.03722247
9976.00   0.98135945   0.03619572
9978.00   0.98021460   0.03575669
9980.00   1.01187620   0.03566748
9982.00   1.06176537   0.03569180
9984.00   1.14027220   0.03608465
9986.00   1.14339495   0.03580799
9988.00   1.08045542   0.03483029
9990.00   1.05324066   0.03422311
9992.00   1.06269050   0.03371600
9994.00   1.08133823   0.03393953
9996.00   1.09609354   0.03531612
9998.00   1.12416875   0.03743147
10000.00   1.11497158   0.03982518
10002.00   1.04096144   0.04297189
10004.00   1.02311268   0.04611187
10006.00   1.06897914   0.04921832
10008.00   1.12975311   0.05234764
10010.00   1.16871101   0.05655275
10012.00   1.19833809   0.06010954
10014.00   1.16229105   0.05960561
10016.00   0.99068195   0.05453586
10018.00   0.87830779   0.05220520
10020.00   0.78313950   0.05121124
10022.00   0.81345108   0.05041830
10024.00   0.94130814   0.04986433
10026.00   1.01799890   0.05100763
10028.00   1.05278364   0.05097439
10030.00   1.07692048   0.05038329
10032.00   1.08503079   0.04821598
10034.00   1.07535392   0.04285311
10036.00   1.09340742   0.03949520
10038.00   1.14401224   0.04015448
10040.00   1.14328209   0.04167931
10042.00   1.12525344   0.04233730
10044.00   1.16154289   0.04286245
10046.00   1.18219250   0.04251031
10048.00   1.16772687   0.04151387
10050.00   1.18812114   0.04138454
10052.00   1.27499169   0.04169623
10054.00   1.35709983   0.04236981
10056.00   1.37156153   0.04381874
10058.00   1.34275848   0.04573308
10060.00   1.35637230   0.04728952
10062.00   1.39101893   0.04831964
10064.00   1.42843604   0.04852302
10066.00   1.48808086   0.04760191
10068.00   1.47491997   0.04750622
10070.00   1.40032893   0.04793035
10072.00   1.39564872   0.04969423
10074.00   1.38523185   0.05222787
10076.00   1.29562181   0.05591868
10078.00   1.32385164   0.05820539
10080.00   1.47159797   0.05976853
10082.00   1.55418575   0.05979611
10084.00   1.53707659   0.05907048
10086.00   1.53401870   0.05820811
10088.00   1.52396262   0.05544316
10090.00   1.48666048   0.05066191
10092.00   1.53037947   0.04920249
10094.00   1.61752743   0.05017900
10096.00   1.60395074   0.05089754
10098.00   1.48206288   0.05171627
10100.00   1.45872688   0.05231316
10102.00   1.47573918   0.05293743
10104.00   1.50525320   0.05362950
10106.00   1.45743030   0.05364835
10108.00   1.31665772   0.05371931
10110.00   1.27426153   0.05336610
10112.00   1.34571016   0.05121659
10114.00   1.39280158   0.05049017
10116.00   1.40984172   0.05341991
10118.00   1.39490503   0.05801633
10120.00   1.31627905   0.06169870
10122.00   1.22728145   0.06534048
10124.00   1.26511449   0.06603368
10126.00   1.43099499   0.06415158
10128.00   1.44385117   0.06193184
10130.00   1.31946301   0.05849627
10132.00   1.26390123   0.05551658
10134.00   1.28943175   0.05516240
10136.00   1.35872173   0.05763343
10138.00   1.38133508   0.05862605
10140.00   1.39592105   0.05900941
10142.00   1.35514778   0.05947542
10144.00   1.22702372   0.06079199
10146.00   1.11536151   0.06253300
10148.00   1.09615868   0.06209163
10150.00   1.15000808   0.05934265
10152.00   1.16800582   0.06017495
10154.00   1.16537064   0.06314976
10156.00   1.23844874   0.06398029
10158.00   1.43830186   0.06218598
10160.00   1.56569678   0.06217902
10162.00   1.62133789   0.06400753
10164.00   1.63196200   0.06642501
10166.00   1.55653894   0.07151867
10168.00   1.48577130   0.08205666
10170.00   1.47907448   0.08511257
10172.00   1.51517081   0.08157805
10174.00   1.37911564   0.07579044
10176.00   1.21821636   0.07028494
10178.00   1.17764109   0.06566696
10180.00   1.16582465   0.06399830
10182.00   1.20155966   0.06526868
10184.00   1.22562474   0.06698661
10186.00   1.24224654   0.07082603
10188.00   1.20273203   0.07226839
10190.00   1.15462756   0.07075610
10192.00   1.17189795   0.06872250
10194.00   1.14737415   0.06765508
10196.00   1.03777665   0.06717690
10198.00   1.05086342   0.06745989
10200.00   1.19745523   0.06824618
10202.00   1.30955899   0.07018645
10204.00   1.37343144   0.07405564
10206.00   1.34561384   0.07709152
10208.00   1.28540832   0.07914107
10210.00   1.21545243   0.08062694
10212.00   1.18241912   0.07941266
10214.00   1.13405034   0.07490289
10216.00   1.15853587   0.07417571
10218.00   1.33213359   0.07814677
10220.00   1.42096657   0.07993786
10222.00   1.31528050   0.07863548
10224.00   1.17444509   0.07719781
10226.00   1.08309171   0.07881159
10228.00   0.89678980   0.08407289
10230.00   0.86839950   0.08427486
10232.00   1.04561296   0.07981175
10234.00   1.13321668   0.07483041
10236.00   0.99714768   0.07029564
10238.00   0.93328640   0.06728297
10240.00   1.04001218   0.06741605
10242.00   1.10594013   0.06904552
10244.00   1.11118653   0.06944422
10246.00   1.14962983   0.06978236
10248.00   1.14002931   0.07145440
10250.00   0.92176089   0.07249849
10252.00   0.69364065   0.07663524
10254.00   0.66306779   0.08464719
10256.00   0.76630360   0.08963997
10258.00   0.91565940   0.08681582
10260.00   1.17482877   0.07762193
10262.00   1.24517119   0.07470772
10264.00   1.09508532   0.07715317
10266.00   0.99186131   0.07851240
10268.00   0.98725927   0.07943607
10270.00   1.04447857   0.07985745
10272.00   1.02753416   0.07994370
10274.00   0.94660985   0.08018930
10276.00   0.95357162   0.08512451
10278.00   1.10384166   0.09322926
10280.00   1.10917771   0.10230977
10282.00   0.89983511   0.11504490
10284.00   0.71878824   0.12394720
10286.00   0.70123193   0.12477395
10288.00   0.73590511   0.12052889
10290.00   0.74610284   0.11624687
10292.00   0.79327649   0.10893234
10294.00   0.76106453   0.10352361
10296.00   0.56881676   0.10039954
10298.00   0.49236086   0.09774367
10300.00   0.53078991   0.09390329
10302.00   0.51811026   0.08860905
10304.00   0.66020900   0.08656604
10306.00   0.99138185   0.08731930
10308.00   1.12974858   0.08681298
10310.00   1.03253523   0.08480993
10312.00   0.96510619   0.08376969
10314.00   0.88391876   0.08354994
10316.00   0.74586010   0.08370479
10318.00   0.73722073   0.08311344
10320.00   0.83454150   0.08193653
10322.00   0.83196422   0.08172046
10324.00   0.70424286   0.08230943
10326.00   0.64480922   0.08327351
10328.00   0.66950543   0.08560782
10330.00   0.68716878   0.08653050
10332.00   0.72944771   0.08536298
10334.00   0.77979423   0.08354446
10336.00   0.83116245   0.08397347
10338.00   0.95290941   0.08516787
10340.00   0.99571234   0.08754994
10342.00   0.79342747   0.09139876
10344.00   0.53394166   0.10014174
10346.00   0.48515259   0.10928144
10348.00   0.59983446   0.11057587
10350.00   0.68782450   0.10701043
10352.00   0.83068362   0.09957738
10354.00   0.90501833   0.09754113
10356.00   0.94514981   0.09400508
10358.00   0.85197774   0.08841370
10360.00   0.63574338   0.08663956
10362.00   0.40441686   0.08620294
10364.00   0.53015432   0.08974544
10366.00   0.96759865   0.09746874
10368.00   1.14206827   0.10245619
10370.00   1.10359257   0.10397902
10372.00   0.98781502   0.10881222
10374.00   0.75729230   0.11849121
10376.00   0.60746941   0.12323062
10378.00   0.60761560   0.11546206
10380.00   0.59068535   0.09642868
10382.00   0.66354123   0.08717459
10384.00   0.95471972   0.08569969
10386.00   1.16419780   0.08555158
10388.00   1.18775386   0.08943229
10390.00   1.18858856   0.09604752
10392.00   1.07405311   0.09829053
10394.00   0.67720607   0.09838250
10396.00   0.60819326   0.09693945
10398.00   0.84932777   0.09160016
10400.00   1.05741936   0.08807790
10402.00   1.17138731   0.09043731
10404.00   1.14499158   0.09444930
10406.00   0.88270047   0.09207491
10408.00   0.47484712   0.08504015
10410.00   0.60528699   0.08764054
10412.00   1.19534731   0.09748849
10414.00   1.36900842   0.10142616
10416.00   1.08188710   0.09973285
10418.00   0.86072779   0.09785411
10420.00   0.80440581   0.09731231
10422.00   0.90701634   0.09665118
10424.00   0.93796796   0.09588608
10426.00   0.79970208   0.09574566
10428.00   0.67484690   0.09361383
10430.00   0.59967315   0.08728305
10432.00   0.73975173   0.08362960
10434.00   0.84298185   0.08305131
10436.00   0.93021396   0.08562672
10438.00   1.07685912   0.09230118
10440.00   1.19976231   0.09913933
10442.00   1.17976242   0.09766448
10444.00   1.00996608   0.08765924
10446.00   0.95635158   0.08445975
10448.00   0.98281112   0.08475065
10450.00   1.02010608   0.08492349
10452.00   0.92370412   0.08418752
10454.00   0.74240108   0.08267064
10456.00   0.69544849   0.08217234
10458.00   0.72220582   0.08178717
10460.00   0.72527969   0.08324546
10462.00   0.74846476   0.08802399
10464.00   0.78129140   0.09163168
10466.00   0.82377681   0.09196055
10468.00   0.89308974   0.09064913
10470.00   0.94600874   0.08952802
10472.00   1.00587654   0.08764799
10474.00   0.98067746   0.08589016
10476.00   0.83709922   0.08380958
10478.00   0.75487828   0.08282420
10480.00   0.67643178   0.08274859
10482.00   0.56520861   0.08261080
10484.00   0.62076449   0.08277414
10486.00   0.78693947   0.08338842
10488.00   0.80097997   0.08320968
10490.00   0.63731654   0.08171051
10492.00   0.66197275   0.08162550
10494.00   0.80156183   0.08301529
10496.00   0.88774651   0.08449574
10498.00   0.89845458   0.08476228
10500.00   0.82700479   0.08382064
10502.00   0.80411032   0.08382011
10504.00   0.80102918   0.08454676
10506.00   0.83213601   0.08513622
10508.00   0.90466732   0.08540903
10510.00   0.99054599   0.08588390
10512.00   0.95190185   0.08584290
10514.00   0.73437682   0.08463955
10516.00   0.70814705   0.08515840
10518.00   0.83259973   0.08720352
10520.00   0.91481003   0.08866870
10522.00   0.92267975   0.08972605
10524.00   0.88223734   0.08978864
10526.00   0.79749921   0.08798792
10528.00   0.67131579   0.08480402
10530.00   0.65652908   0.08377308
10532.00   0.68735325   0.08374198
10534.00   0.70360541   0.08371059
10536.00   0.72462249   0.08382804
10538.00   0.82754189   0.08484901
10540.00   0.89318150   0.08634001
10542.00   0.90529650   0.08750969
10544.00   0.92691296   0.08757638
10546.00   0.86977977   0.08643690
10548.00   0.80583525   0.08589354
10550.00   0.74254024   0.08565960
10552.00   0.78722563   0.08620801
10554.00   0.77644676   0.08672213
10556.00   0.68098271   0.08677463
10558.00   0.68453848   0.08757391
10560.00   0.71671346   0.08972336
10562.00   0.80832613   0.09043704
10564.00   1.02864024   0.08972956
10566.00   1.16281343   0.08939093
10568.00   1.12518954   0.09057901
10570.00   1.00759864   0.09170253
10572.00   0.95748246   0.09100832
10574.00   0.96216655   0.08893366
10576.00   0.96352249   0.08919708
10578.00   0.97032052   0.09153401
10580.00   0.95941940   0.09282813
10582.00   0.95931211   0.09327754
10584.00   0.93351755   0.09227073
10586.00   0.84516343   0.08983726
10588.00   0.73069617   0.08646916
10590.00   0.66674376   0.08546219
10592.00   0.59997247   0.08598292
10594.00   0.64979500   0.08631094
10596.00   0.92170709   0.08673859
10598.00   1.06326234   0.08790469
10600.00   0.94140831   0.08847658
10602.00   0.70828658   0.08861896
10604.00   0.54762168   0.09064701
10606.00   0.42614719   0.09231128
10608.00   0.45123382   0.08998558
10610.00   0.62035713   0.08230598
10612.00   0.69853194   0.08141420
10614.00   0.79607418   0.08618832
10616.00   0.92530423   0.09065410
10618.00   0.97483841   0.09496879
10620.00   0.92960429   0.09880307
10622.00   0.84914038   0.09566906
10624.00   0.69434378   0.08482446
10626.00   0.67827693   0.08005065
10628.00   0.80505949   0.08200738
10630.00   0.89577255   0.08364100
10632.00   0.91721451   0.08432526
10634.00   0.89677301   0.08470053
10636.00   0.87063378   0.08347299
10638.00   0.83653948   0.08004207
10640.00   0.81581852   0.07950920
10642.00   0.80989537   0.08261259
10644.00   0.76957190   0.08557274
10646.00   0.65920994   0.08661862
10648.00   0.50672153   0.08762460
10650.00   0.59245878   0.08663219
10652.00   0.91511366   0.08160613
10654.00   1.03815684   0.07893590
10656.00   1.00316265   0.07912856
10658.00   0.93227679   0.07972404
10660.00   0.82241163   0.07866618
10662.00   0.70611292   0.07697797
10664.00   0.65151379   0.07599147
10666.00   0.58068258   0.07516277
10668.00   0.60073768   0.07428360
10670.00   0.76644108   0.07280613
10672.00   0.82665637   0.07405280
10674.00   0.67750391   0.07873742
10676.00   0.53457901   0.08218266
10678.00   0.52072126   0.08403490
10680.00   0.57225069   0.08446206
10682.00   0.74286366   0.08192967
10684.00   1.10009515   0.07600983
10686.00   1.27927560   0.07353579
10688.00   1.25021404   0.07435886
10690.00   1.16674232   0.07470706
10692.00   1.11005139   0.07392050
10694.00   1.08104038   0.07248761
10696.00   1.13308454   0.07188167
10698.00   1.23659506   0.07150596
10700.00   1.28189030   0.07083357
10702.00   1.34387648   0.07013830
10704.00   1.30602807   0.06912451
10706.00   1.09440267   0.06713950
10708.00   0.89267993   0.06745510
10710.00   0.79782137   0.06996755
10712.00   0.73114809   0.07268285
10714.00   0.75387746   0.07266717
10716.00   0.90379459   0.07083278
10718.00   1.02100343   0.06874186
10720.00   1.10736847   0.06513733
10722.00   1.17566955   0.06314565
10724.00   1.19497186   0.06226183
10726.00   1.07845759   0.06226753
10728.00   1.01285052   0.06481912
10730.00   0.99333751   0.07050794
10732.00   1.02247971   0.07146134
10734.00   0.99224898   0.06775076
10736.00   0.96072859   0.06367616
10738.00   1.06011656   0.06087943
10740.00   1.13110346   0.06069468
10742.00   1.08343700   0.06105415
10744.00   0.95518824   0.06181650
10746.00   0.96591270   0.06218836
10748.00   1.09828252   0.06389244
10750.00   1.23457116   0.06426026
10752.00   1.31707889   0.06222132
10754.00   1.32240099   0.05930697
10756.00   1.28544044   0.05652987
10758.00   1.21115953   0.05353645
10760.00   1.17340982   0.05368068
10762.00   1.15592420   0.05841502
10764.00   1.09208274   0.05851449
10766.00   1.03657997   0.05503601
10768.00   1.10213915   0.05215885
10770.00   1.08506507   0.05002154
10772.00   0.87014925   0.04959505
10774.00   0.89409925   0.05203545
10776.00   1.14599714   0.05735469
10778.00   1.39749658   0.05791725
10780.00   1.66117817   0.05661625
10782.00   1.81203228   0.05684715
10784.00   1.67141950   0.05379332
10786.00   1.29727787   0.04861809
10788.00   1.12299114   0.04936661
10790.00   1.02344018   0.05374798
10792.00   1.00461993   0.05324188
10794.00   1.07909253   0.04866028
10796.00   1.10768035   0.04710660
10798.00   1.13597578   0.04698390
10800.00   1.14863759   0.04698774
10802.00   1.17077795   0.04593763
10804.00   1.22468942   0.04394967
10806.00   1.25873929   0.04323409
10808.00   1.27855718   0.04411603
10810.00   1.28435403   0.04478761
10812.00   1.16678983   0.04509374
10814.00   0.93708980   0.04473036
10816.00   0.89424583   0.04287421
10818.00   0.93961355   0.03934398
10820.00   0.94137788   0.03859219
10822.00   0.92377776   0.04048096
10824.00   0.98534298   0.04171060
10826.00   1.06527042   0.04301557
10828.00   1.12115520   0.04438561
10830.00   1.18649411   0.04363355
10832.00   1.18649411   0.04363355
