# File created by shivutils (I.Shivvers)
# wl(A)   flm    er(optional)
3630.00   0.31856260   0.09850003
3632.00   0.51377183   0.10094474
3634.00   0.55674696   0.09892172
3636.00   0.63250232   0.10291247
3638.00   0.59837401   0.10075467
3640.00   0.66139436   0.10409173
3642.00   0.44595706   0.10428543
3644.00   0.39994097   0.10464921
3646.00   0.69908297   0.11616883
3648.00   0.73390007   0.14825663
3650.00   0.71124864   0.16077611
3652.00   0.39129475   0.14021218
3654.00   0.46393192   0.12971558
3656.00   0.45720181   0.11616208
3658.00   0.62021512   0.10526775
3660.00   0.52326560   0.10997681
3662.00   0.55148071   0.12061682
3664.00   0.57805544   0.11229875
3666.00   0.50435412   0.09552458
3668.00   0.56365639   0.09111945
3670.00   0.53415293   0.08989970
3672.00   0.47993454   0.08753598
3674.00   0.52842408   0.08738235
3676.00   0.50547057   0.08632924
3678.00   0.42393953   0.08272838
3680.00   0.59036136   0.08413780
3682.00   0.44384822   0.08115982
3684.00   0.45239273   0.08095019
3686.00   0.57959193   0.08139206
3688.00   0.53104001   0.08146439
3690.00   0.58247834   0.08461856
3692.00   0.52525401   0.08333406
3694.00   0.68652147   0.08467834
3696.00   0.57210869   0.08391354
3698.00   0.56959623   0.08643105
3700.00   0.60309160   0.08644542
3702.00   0.63590759   0.08619528
3704.00   0.42819065   0.08075450
3706.00   0.46052036   0.08147565
3708.00   0.54043466   0.08073255
3710.00   0.52739638   0.08084562
3712.00   0.42707685   0.07894421
3714.00   0.53472072   0.08062353
3716.00   0.43608230   0.07716542
3718.00   0.69149899   0.08022968
3720.00   0.55950856   0.07757292
3722.00   0.67371446   0.07906169
3724.00   0.60215944   0.07923584
3726.00   0.40296265   0.07936454
3728.00   0.66274625   0.08390631
3730.00   0.46465921   0.07870275
3732.00   0.55314004   0.07940679
3734.00   0.66569114   0.07947031
3736.00   0.73003805   0.08130722
3738.00   0.62515008   0.08257790
3740.00   0.59217209   0.08252618
3742.00   0.55811995   0.08023557
3744.00   0.66883689   0.07912195
3746.00   0.59556562   0.07575340
3748.00   0.62975717   0.07514650
3750.00   0.59363705   0.07553094
3752.00   0.58892381   0.07758042
3754.00   0.57399625   0.07644890
3756.00   0.67840523   0.07718436
3758.00   0.63568944   0.07442880
3760.00   0.61830300   0.07292035
3762.00   0.63884312   0.07335249
3764.00   0.64562815   0.07326578
3766.00   0.66635513   0.07228348
3768.00   0.58709097   0.07130808
3770.00   0.67799962   0.07341691
3772.00   0.75525856   0.07541728
3774.00   0.68457288   0.07449276
3776.00   0.70088494   0.07301009
3778.00   0.69720477   0.07320035
3780.00   0.84075052   0.07490423
3782.00   0.74074513   0.07321041
3784.00   0.80200738   0.07374487
3786.00   0.77894104   0.07351165
3788.00   0.80695176   0.07264962
3790.00   0.80820960   0.07473882
3792.00   0.76811630   0.07430780
3794.00   0.76931429   0.07165673
3796.00   0.71802539   0.06941613
3798.00   0.72246176   0.06836966
3800.00   0.73044074   0.07082357
3802.00   0.71249825   0.07111677
3804.00   0.79038155   0.07114588
3806.00   0.85316998   0.07119559
3808.00   0.68212110   0.06872339
3810.00   0.72254068   0.06917757
3812.00   0.68808985   0.06959225
3814.00   0.66855925   0.06828310
3816.00   0.61326790   0.06685416
3818.00   0.75931746   0.06857927
3820.00   0.67858875   0.06759518
3822.00   0.87642246   0.07067933
3824.00   0.73360479   0.06773622
3826.00   0.70397389   0.06900621
3828.00   0.76321632   0.07151707
3830.00   0.84785724   0.07331968
3832.00   0.72531641   0.06961025
3834.00   0.65931350   0.06826948
3836.00   0.70083672   0.06792656
3838.00   0.74342328   0.06781092
3840.00   0.70756364   0.06654575
3842.00   0.68690890   0.06699733
3844.00   0.73535806   0.06693857
3846.00   0.60225189   0.06386022
3848.00   0.63389838   0.06329037
3850.00   0.75963414   0.06479875
3852.00   0.75356430   0.06490709
3854.00   0.69734383   0.06356349
3856.00   0.69033140   0.06283893
3858.00   0.66003442   0.06960138
3860.00   0.69783205   0.06206257
3862.00   0.63243294   0.06206315
3864.00   0.72893876   0.06251295
3866.00   0.59321046   0.05941302
3868.00   0.81238955   0.06239853
3870.00   0.73272717   0.06046093
3872.00   0.67697150   0.06143062
3874.00   0.57774425   0.06184888
3876.00   0.64175677   0.06074605
3878.00   0.73398435   0.06046109
3880.00   0.69366682   0.05889764
3882.00   0.70548826   0.05869454
3884.00   0.68277758   0.05800048
3886.00   0.58542508   0.05665508
3888.00   0.51764452   0.05451711
3890.00   0.69562596   0.05806801
3892.00   0.69929320   0.05882165
3894.00   0.70420980   0.05979122
3896.00   0.60429704   0.05771743
3898.00   0.72193277   0.06040353
3900.00   0.67664504   0.05937541
3902.00   0.53192979   0.05881508
3904.00   0.63373256   0.06478606
3906.00   0.61793351   0.06972414
3908.00   0.65898860   0.07285246
3910.00   0.58730608   0.07182794
3912.00   0.64260143   0.07129978
3914.00   0.55545831   0.06567658
3916.00   0.65080839   0.06255075
3918.00   0.63156343   0.06004907
3920.00   0.63079238   0.05847915
3922.00   0.63147873   0.05786586
3924.00   0.63742924   0.05782245
3926.00   0.69559652   0.05792934
3928.00   0.79634666   0.05813127
3930.00   0.60386145   0.05573701
3932.00   0.52904177   0.05612713
3934.00   0.67032325   0.05718292
3936.00   0.67062205   0.05457237
3938.00   0.73301810   0.05647542
3940.00   0.73339170   0.05811652
3942.00   0.68248886   0.06012257
3944.00   0.75257027   0.06168907
3946.00   0.88991320   0.06079973
3948.00   0.80621409   0.05883121
3950.00   0.92702085   0.05982442
3952.00   0.82711595   0.05819387
3954.00   0.79979569   0.05753196
3956.00   0.85781944   0.05705286
3958.00   0.75942069   0.05685584
3960.00   0.78845543   0.06007329
3962.00   0.82258815   0.05826516
3964.00   0.87043464   0.05575102
3966.00   0.83314258   0.05318656
3968.00   0.82832140   0.05296248
3970.00   0.86800992   0.05379255
3972.00   0.85908353   0.05564744
3974.00   0.86649257   0.05536435
3976.00   0.88973784   0.05554883
3978.00   0.87256980   0.05557171
3980.00   0.85086191   0.05611746
3982.00   0.90323228   0.05634150
3984.00   0.87612653   0.05570825
3986.00   1.00115883   0.05717421
3988.00   0.94886947   0.05720695
3990.00   0.89785838   0.05691695
3992.00   0.79341882   0.05543344
3994.00   0.86062151   0.05800217
3996.00   0.83700854   0.05899574
3998.00   0.89309782   0.05874501
4000.00   0.93438798   0.05735997
4002.00   0.86980683   0.05564591
4004.00   0.87972456   0.05543375
4006.00   0.89001185   0.05650169
4008.00   0.89087117   0.05813698
4010.00   0.89819616   0.05809774
4012.00   0.88942361   0.05782322
4014.00   0.90122384   0.05692186
4016.00   0.86196029   0.05767772
4018.00   0.93906921   0.06409124
4020.00   0.88990581   0.06826878
4022.00   0.85143739   0.06820747
4024.00   0.93284613   0.06638743
4026.00   0.85984224   0.06105145
4028.00   0.98900086   0.06089754
4030.00   0.89685190   0.05997363
4032.00   0.80909956   0.05752457
4034.00   0.82197350   0.05668041
4036.00   0.76085550   0.05668199
4038.00   0.91153514   0.05800658
4040.00   0.82236606   0.05740080
4042.00   0.89577711   0.06596658
4044.00   0.85122687   0.09899835
4046.00   0.87072372   0.11234120
4048.00   0.78849781   0.08962177
4050.00   0.82178468   0.06416614
4052.00   0.86398107   0.06111770
4054.00   0.79608387   0.06054375
4056.00   0.83568901   0.05847733
4058.00   0.78081244   0.05520605
4060.00   0.85424590   0.05497617
4062.00   0.82202971   0.05514630
4064.00   0.84083182   0.05553485
4066.00   0.80796170   0.05476719
4068.00   0.85281527   0.05479398
4070.00   0.87747020   0.05435504
4072.00   0.84335059   0.05365385
4074.00   1.00585496   0.05811421
4076.00   0.86927873   0.06327336
4078.00   0.83769560   0.06371621
4080.00   1.04736090   0.06215999
4082.00   0.99351728   0.06033715
4084.00   0.92620057   0.05855911
4086.00   0.88530612   0.05705844
4088.00   0.85697943   0.05454677
4090.00   0.94048142   0.05318593
4092.00   0.90095305   0.05229249
4094.00   1.00021029   0.05315177
4096.00   0.97467065   0.05213667
4098.00   0.93243349   0.05184228
4100.00   0.97814560   0.05184048
4102.00   0.84075636   0.04965414
4104.00   0.96164489   0.05063064
4106.00   0.95262021   0.05128854
4108.00   1.01810932   0.05211788
4110.00   0.94189829   0.05127860
4112.00   0.96459132   0.05170473
4114.00   0.89697206   0.05110932
4116.00   0.99862111   0.05185174
4118.00   0.93646604   0.04962793
4120.00   0.97173548   0.05012663
4122.00   0.91742593   0.04990635
4124.00   0.98006243   0.05143247
4126.00   0.94428849   0.05089634
4128.00   0.90448964   0.05099484
4130.00   0.88569391   0.05164082
4132.00   0.96365237   0.05382662
4134.00   0.96625251   0.05315473
4136.00   0.90830690   0.05159117
4138.00   0.98928028   0.05382723
4140.00   0.92476457   0.05276636
4142.00   0.89646655   0.05053477
4144.00   0.99440819   0.05054796
4146.00   0.99423677   0.05084048
4148.00   0.96037668   0.05031202
4150.00   0.94760859   0.05266981
4152.00   0.90089107   0.05336611
4154.00   0.83217144   0.05090252
4156.00   0.95455772   0.05121423
4158.00   0.97894615   0.05126692
4160.00   1.02540088   0.05247543
4162.00   1.00669396   0.05483012
4164.00   0.96251184   0.05621838
4166.00   0.91450781   0.05456132
4168.00   1.02107441   0.05299862
4170.00   1.01379514   0.05209324
4172.00   0.98076564   0.05072890
4174.00   0.93319017   0.04978844
4176.00   0.97526348   0.05052754
4178.00   0.92838579   0.05055096
4180.00   0.95878971   0.05008486
4182.00   1.01811683   0.04957498
4184.00   0.93321139   0.04862087
4186.00   0.92505306   0.04831006
4188.00   0.99094367   0.04933115
4190.00   1.04556227   0.05016335
4192.00   1.01248693   0.05010253
4194.00   0.99774158   0.04905964
4196.00   0.92481542   0.04791872
4198.00   0.88039374   0.04690166
4200.00   0.94886118   0.04801269
4202.00   0.88497311   0.04791650
4204.00   0.95649695   0.04851728
4206.00   0.98295456   0.04947780
4208.00   0.86049926   0.04899857
4210.00   0.93248224   0.04954414
4212.00   0.98859489   0.05003031
4214.00   0.92929703   0.04897978
4216.00   0.94065928   0.04895411
4218.00   0.88925296   0.04833913
4220.00   0.91759640   0.04856257
4222.00   0.87953156   0.04814311
4224.00   0.88899171   0.04755664
4226.00   0.94595617   0.04808479
4228.00   0.88959104   0.04800303
4230.00   0.81870240   0.04815954
4232.00   0.93576610   0.04988106
4234.00   0.88589221   0.04920897
4236.00   0.92393178   0.05000971
4238.00   0.94909364   0.05022878
4240.00   0.79780740   0.04793753
4242.00   0.76160431   0.04744229
4244.00   0.83529842   0.05290571
4246.00   0.88583684   0.05613219
4248.00   0.86917394   0.05303089
4250.00   0.84919167   0.04918380
4252.00   0.86008126   0.04859452
4254.00   0.74636060   0.04786493
4256.00   0.76909071   0.04810978
4258.00   0.75475615   0.04733085
4260.00   0.75800776   0.04707345
4262.00   0.82648671   0.04720620
4264.00   0.73103869   0.04655601
4266.00   0.79676306   0.04728014
4268.00   0.77991825   0.04688268
4270.00   0.70990509   0.04625758
4272.00   0.65229619   0.04605218
4274.00   0.69867963   0.04650935
4276.00   0.67647392   0.04693378
4278.00   0.69083685   0.04734331
4280.00   0.70324677   0.04743961
4282.00   0.64232439   0.04699794
4284.00   0.77096206   0.04760322
4286.00   0.75110453   0.04719580
4288.00   0.73444766   0.04712658
4290.00   0.78465503   0.04737059
4292.00   0.82929647   0.04805270
4294.00   0.78541028   0.04798614
4296.00   0.64147538   0.04653161
4298.00   0.75804615   0.04705745
4300.00   0.73913121   0.04659333
4302.00   0.74289471   0.04684189
4304.00   0.75601548   0.04760078
4306.00   0.87236786   0.04899855
4308.00   0.84647375   0.04848753
4310.00   0.89516807   0.05032156
4312.00   0.77021879   0.05219270
4314.00   0.81624383   0.05353015
4316.00   0.86632085   0.05212408
4318.00   0.91398978   0.05342035
4320.00   0.80082750   0.05287548
4322.00   0.85552514   0.05270621
4324.00   1.06530786   0.05328784
4326.00   0.88294166   0.05115293
4328.00   0.92116636   0.05056204
4330.00   0.96340066   0.05071850
4332.00   0.96381664   0.05067229
4334.00   0.88258213   0.05032363
4336.00   0.97775704   0.05205265
4338.00   0.93053263   0.05215706
4340.00   1.05570924   0.05312143
4342.00   1.05983233   0.05312879
4344.00   0.94650978   0.05391864
4346.00   1.02094328   0.05628856
4348.00   1.01495457   0.05607489
4350.00   0.98929697   0.05446843
4352.00   0.96227098   0.05408258
4354.00   1.14049721   0.07162043
4356.00   1.04501736   0.10583815
4358.00   1.10807157   0.11532372
4360.00   0.97974354   0.09059183
4362.00   1.07596982   0.06717421
4364.00   0.99904996   0.05778455
4366.00   0.98096323   0.05600730
4368.00   1.06326890   0.05557923
4370.00   1.00700319   0.05541684
4372.00   0.93164897   0.05588129
4374.00   1.06433260   0.05698484
4376.00   0.99553120   0.05512628
4378.00   1.00111508   0.05398392
4380.00   0.96955329   0.05333170
4382.00   1.07934999   0.05376298
4384.00   0.92688197   0.05208447
4386.00   0.94972438   0.05242801
4388.00   1.02139223   0.05252141
4390.00   0.96327132   0.05233996
4392.00   1.06329715   0.05307920
4394.00   1.01433456   0.05286549
4396.00   0.96667570   0.05261241
4398.00   0.85962266   0.05295051
4400.00   1.02666295   0.05468174
4402.00   1.03156579   0.05414077
4404.00   0.93508351   0.05263359
4406.00   1.01481450   0.05312752
4408.00   0.95406353   0.05319013
4410.00   1.02170908   0.05375955
4412.00   1.03934467   0.05461478
4414.00   1.00210142   0.05450854
4416.00   0.88431156   0.05350094
4418.00   0.97450006   0.05364082
4420.00   0.92914027   0.05311335
4422.00   0.91415793   0.05261411
4424.00   0.89543456   0.05274190
4426.00   0.95453072   0.05269578
4428.00   0.89418715   0.05251437
4430.00   0.90636927   0.05236588
4432.00   0.86992311   0.05209564
4434.00   0.95181650   0.05237187
4436.00   0.94747299   0.05259965
4438.00   0.89776504   0.05222877
4440.00   0.90305644   0.05214586
4442.00   0.86844963   0.05195248
4444.00   0.90039563   0.05225082
4446.00   0.94978231   0.05228818
4448.00   0.97249806   0.05254182
4450.00   0.98700327   0.05234585
4452.00   1.03170335   0.05271110
4454.00   0.95290893   0.05183134
4456.00   0.92111731   0.05162901
4458.00   0.89158440   0.05139056
4460.00   0.94141293   0.05179384
4462.00   0.93905997   0.05176117
4464.00   0.88252407   0.05140363
4466.00   0.95882189   0.05190482
4468.00   0.97626352   0.05186460
4470.00   0.88470227   0.05124023
4472.00   0.97269893   0.05164944
4474.00   1.02968800   0.05224869
4476.00   0.91707629   0.05123328
4478.00   0.91383576   0.05117075
4480.00   0.97968286   0.05169384
4482.00   0.86912131   0.05099235
4484.00   1.01311707   0.05181293
4486.00   0.84626251   0.05107608
4488.00   0.88672370   0.05078372
4490.00   0.95027959   0.05178112
4492.00   0.82384890   0.05099556
4494.00   0.86005151   0.05131885
4496.00   0.92887759   0.05174644
4498.00   0.81134325   0.05086085
4500.00   0.78356051   0.05036253
4502.00   0.98702955   0.05154943
4504.00   0.94779432   0.05115113
4506.00   0.89965123   0.05085744
4508.00   0.85020888   0.05011575
4510.00   0.83632702   0.04975970
4512.00   0.96654809   0.05068720
4514.00   0.89825588   0.05005156
4516.00   0.87834722   0.04925735
4518.00   0.83764702   0.04898699
4520.00   0.83468860   0.04891986
4522.00   1.00956655   0.04979328
4524.00   0.92528981   0.04884326
4526.00   0.89252305   0.04854618
4528.00   0.95227861   0.04901248
4530.00   0.98006952   0.04899086
4532.00   1.02328134   0.04913501
4534.00   0.94089592   0.04847132
4536.00   0.83982253   0.04752914
4538.00   0.88073832   0.04795177
4540.00   0.94823200   0.04829859
4542.00   0.94258124   0.04843692
4544.00   0.93861037   0.04853402
4546.00   0.94552290   0.04788514
4548.00   0.93660825   0.04716553
4550.00   0.91598618   0.04660628
4552.00   0.96469527   0.04682504
4554.00   0.96330994   0.04669791
4556.00   1.05669200   0.04760867
4558.00   0.96976817   0.04702706
4560.00   1.04408360   0.04697559
4562.00   0.97144938   0.04602629
4564.00   1.01233292   0.04598479
4566.00   0.99796605   0.04578359
4568.00   1.00585604   0.04587585
4570.00   1.02178442   0.04594189
4572.00   1.01780462   0.04590847
4574.00   0.95503485   0.04546310
4576.00   1.02219331   0.04539027
4578.00   1.00235498   0.04479566
4580.00   1.01432872   0.04465337
4582.00   1.04017496   0.04453633
4584.00   1.07104969   0.04449831
4586.00   0.99690747   0.04412238
4588.00   1.02608383   0.04400144
4590.00   1.06603134   0.04419376
4592.00   1.08184874   0.04460904
4594.00   1.04307830   0.04420725
4596.00   1.06517482   0.04409500
4598.00   1.04490352   0.04369746
4600.00   0.96637601   0.04289552
4602.00   1.00131488   0.04309062
4604.00   1.02792227   0.04340819
4606.00   1.11919510   0.04392811
4608.00   1.06846535   0.04381459
4610.00   1.06133831   0.04367653
4612.00   1.11250997   0.04346372
4614.00   1.05834460   0.04289682
4616.00   1.09754777   0.04311432
4618.00   1.18129444   0.04351564
4620.00   1.06424868   0.04264530
4622.00   1.11254811   0.04308793
4624.00   1.10669291   0.04296929
4626.00   1.07887077   0.04274571
4628.00   1.09820437   0.04264753
4630.00   1.12756479   0.04275573
4632.00   1.11474383   0.04254915
4634.00   1.01362634   0.04173158
4636.00   1.03109455   0.04182122
4638.00   1.15191448   0.04262086
4640.00   1.16647983   0.04286052
4642.00   1.04201567   0.04171741
4644.00   1.04747975   0.04165320
4646.00   1.08459592   0.04197370
4648.00   1.15642905   0.04243530
4650.00   1.06432319   0.04189029
4652.00   1.11019313   0.04218504
4654.00   1.15996468   0.04263283
4656.00   1.06993473   0.04236050
4658.00   1.08414793   0.04276348
4660.00   1.11053872   0.04309742
4662.00   1.08567882   0.04348258
4664.00   1.10255659   0.04383660
4666.00   1.16221261   0.04461413
4668.00   1.13123930   0.04487230
4670.00   1.12948453   0.04475836
4672.00   1.06028163   0.04410483
4674.00   1.09451437   0.04383790
4676.00   1.10916054   0.04315442
4678.00   1.13374865   0.04282546
4680.00   1.02803755   0.04190268
4682.00   1.05277586   0.04182236
4684.00   1.08653271   0.04176262
4686.00   1.14134300   0.04178731
4688.00   1.08749032   0.04125249
4690.00   1.12590313   0.04156028
4692.00   1.05125344   0.04095653
4694.00   1.09701872   0.04100394
4696.00   1.11271954   0.04109794
4698.00   1.10037243   0.04046304
4700.00   1.06930304   0.04027853
4702.00   1.13703990   0.04085569
4704.00   1.09455359   0.04097919
4706.00   1.07033217   0.04109174
4708.00   1.03469479   0.04073166
4710.00   0.98887807   0.04055310
4712.00   1.07325387   0.04095743
4714.00   1.01873374   0.04012514
4716.00   1.09081066   0.04057101
4718.00   1.05515206   0.04013153
4720.00   1.07031894   0.04020451
4722.00   1.12465537   0.04089503
4724.00   1.01634848   0.03991599
4726.00   1.07262433   0.04182116
4728.00   1.06416512   0.04256165
4730.00   0.99699616   0.04211278
4732.00   0.98474324   0.04226991
4734.00   1.02141595   0.04328588
4736.00   1.01503646   0.04344556
4738.00   1.02147520   0.04430470
4740.00   1.02776444   0.04570298
4742.00   1.05054641   0.04554875
4744.00   1.06681228   0.04435346
4746.00   0.98802936   0.04154282
4748.00   1.03699756   0.04056596
4750.00   1.04471195   0.04070500
4752.00   0.97968405   0.04072306
4754.00   0.99717242   0.03980232
4756.00   0.90908110   0.03861991
4758.00   0.95227301   0.03810049
4760.00   0.94538039   0.03771821
4762.00   0.88390160   0.03695589
4764.00   0.89789915   0.03687833
4766.00   0.95484740   0.03723669
4768.00   0.87779951   0.03654228
4770.00   0.91137320   0.03667166
4772.00   0.94280940   0.03702702
4774.00   0.94881082   0.03714327
4776.00   0.88853699   0.03755855
4778.00   0.91499120   0.03849581
4780.00   0.92209524   0.03788411
4782.00   0.85062766   0.03659571
4784.00   0.92020124   0.03687540
4786.00   0.93235922   0.03674694
4788.00   0.91017133   0.03678308
4790.00   0.88377577   0.03693994
4792.00   0.95094693   0.03733531
4794.00   0.90043056   0.03670511
4796.00   0.93910354   0.03677342
4798.00   0.95487654   0.03675161
4800.00   0.96530795   0.03669884
4802.00   0.87496728   0.03598826
4804.00   0.89914697   0.03634373
4806.00   0.95964825   0.03693476
4808.00   1.00898945   0.03734803
4810.00   0.92849618   0.03694066
4812.00   0.97864580   0.03721981
4814.00   0.97783852   0.03743807
4816.00   1.04238009   0.03779429
4818.00   1.06262171   0.03811388
4820.00   1.02972078   0.03799522
4822.00   0.97833419   0.03775396
4824.00   1.06487846   0.03869709
4826.00   1.02694881   0.03857077
4828.00   1.11855948   0.03925426
4830.00   1.05623233   0.03886728
4832.00   1.05249524   0.03890250
4834.00   1.06954658   0.03882416
4836.00   1.11798251   0.03938606
4838.00   1.16338348   0.04020563
4840.00   1.10257959   0.03975974
4842.00   1.05906391   0.03904921
4844.00   1.11018229   0.03924695
4846.00   1.11467814   0.03937216
4848.00   1.08482325   0.03918315
4850.00   1.15421700   0.03938792
4852.00   1.10595870   0.03904952
4854.00   1.19073117   0.03916089
4856.00   1.12224948   0.03843606
4858.00   1.12332857   0.03893080
4860.00   1.15057695   0.03971780
4862.00   1.18489790   0.04004137
4864.00   1.18967009   0.03979437
4866.00   1.13338888   0.03921914
4868.00   1.16804266   0.03923669
4870.00   1.24155390   0.03972182
4872.00   1.13232148   0.03883972
4874.00   1.16038108   0.03919993
4876.00   1.23435712   0.03995477
4878.00   1.24991250   0.04030763
4880.00   1.15767562   0.03944911
4882.00   1.20598066   0.03960036
4884.00   1.20351791   0.03938610
4886.00   1.24452758   0.03943634
4888.00   1.24607146   0.03943036
4890.00   1.24885881   0.03975581
4892.00   1.26570737   0.03983901
4894.00   1.30275166   0.04018074
4896.00   1.30046141   0.04008429
4898.00   1.27122915   0.03965865
4900.00   1.28014171   0.03966631
4902.00   1.29048669   0.03980999
4904.00   1.28113079   0.03989783
4906.00   1.31447899   0.03999440
4908.00   1.30675232   0.04023794
4910.00   1.24512303   0.03975618
4912.00   1.32895494   0.04028631
4914.00   1.30878198   0.04035843
4916.00   1.36749291   0.04080589
4918.00   1.33898199   0.04017919
4920.00   1.32050610   0.03989188
4922.00   1.27447307   0.03985440
4924.00   1.33521712   0.04005240
4926.00   1.35451221   0.04005192
4928.00   1.34073853   0.03978049
4930.00   1.37733197   0.04013267
4932.00   1.34217548   0.03996375
4934.00   1.31942332   0.03985929
4936.00   1.33528399   0.04007624
4938.00   1.32235956   0.04009682
4940.00   1.33094978   0.04011032
4942.00   1.33652782   0.04012253
4944.00   1.22115910   0.03903519
4946.00   1.24833512   0.03908892
4948.00   1.29827714   0.03956755
4950.00   1.32087815   0.04014992
4952.00   1.28364480   0.04022307
4954.00   1.17508566   0.03940671
4956.00   1.25791740   0.03955379
4958.00   1.22451735   0.03929108
4960.00   1.16149795   0.03882083
4962.00   1.23265040   0.03952346
4964.00   1.22159696   0.03977549
4966.00   1.17295825   0.03959482
4968.00   1.23164809   0.04036512
4970.00   1.17236888   0.04088232
4972.00   1.22171879   0.04181240
4974.00   1.12986016   0.04183965
4976.00   1.25493920   0.04415412
4978.00   1.15878403   0.04491639
4980.00   1.17672038   0.04590026
4982.00   1.12128329   0.04635058
4984.00   1.15688205   0.04599813
4986.00   1.21653378   0.04522759
4988.00   1.04918802   0.04315564
4990.00   1.14792717   0.04288018
4992.00   1.12502980   0.04183583
4994.00   1.11745942   0.04073070
4996.00   1.15062833   0.04023004
4998.00   1.12061870   0.03932640
5000.00   1.13501835   0.03909881
5002.00   1.18378675   0.03917804
5004.00   1.15955353   0.03878948
5006.00   1.11150336   0.03844845
5008.00   1.16963387   0.03854009
5010.00   1.20110977   0.03855840
5012.00   1.18481696   0.03848769
5014.00   1.19325936   0.03867031
5016.00   1.16473508   0.03876248
5018.00   1.20500708   0.03935843
5020.00   1.11486173   0.03839090
5022.00   1.05407202   0.03770683
5024.00   1.09060609   0.03771558
5026.00   1.21387148   0.03876144
5028.00   1.22770464   0.03918409
5030.00   1.16536403   0.03890804
5032.00   1.10312474   0.03804419
5034.00   1.11123145   0.03802767
5036.00   1.10444999   0.03770964
5038.00   1.19694555   0.03808798
5040.00   1.17823231   0.03792846
5042.00   1.11891687   0.03781948
5044.00   1.14145792   0.03810605
5046.00   1.14755499   0.03819430
5048.00   1.13187265   0.03800935
5050.00   1.14618194   0.03796534
5052.00   1.14426637   0.03804208
5054.00   1.13599384   0.03802045
5056.00   1.16800761   0.03829243
5058.00   1.09491742   0.03773556
5060.00   1.13773835   0.03868529
5062.00   1.13665009   0.03906627
5064.00   1.15621030   0.03945868
5066.00   1.11567807   0.03981294
5068.00   1.12211406   0.04053687
5070.00   1.10438645   0.04017926
5072.00   1.21468234   0.04037577
5074.00   1.07871950   0.03927012
5076.00   1.14998794   0.03954427
5078.00   1.14052975   0.04089239
5080.00   1.09458566   0.04318069
5082.00   1.11247265   0.04548044
5084.00   1.07751489   0.04632984
5086.00   1.13247442   0.04584043
5088.00   1.09711587   0.04337139
5090.00   1.10842943   0.04143196
5092.00   1.07812655   0.03979786
5094.00   1.12254846   0.03986636
5096.00   1.10514212   0.04042194
5098.00   1.04616225   0.04055112
5100.00   1.09259701   0.04038587
5102.00   1.00681067   0.03890990
5104.00   1.03867722   0.03840114
5106.00   1.04105580   0.03820394
5108.00   1.03118181   0.03773827
5110.00   0.96165156   0.03720624
5112.00   0.99305356   0.03775907
5114.00   1.06157148   0.03844425
5116.00   1.09144771   0.03875739
5118.00   1.07304084   0.03824564
5120.00   1.04615200   0.03775044
5122.00   1.03367305   0.03723441
5124.00   1.06655228   0.03731671
5126.00   1.03094268   0.03708990
5128.00   1.01932836   0.03699742
5130.00   1.06644523   0.03758518
5132.00   1.03259492   0.03747869
5134.00   1.02900445   0.03740538
5136.00   1.09244370   0.03776882
5138.00   1.02220881   0.03713258
5140.00   1.03981960   0.03734961
5142.00   1.04223919   0.03752487
5144.00   1.02630532   0.03758983
5146.00   1.02085125   0.03804851
5148.00   0.99505568   0.03858759
5150.00   0.99622273   0.03922994
5152.00   1.05177045   0.04020943
5154.00   1.16986537   0.04097256
5156.00   1.04136598   0.03922259
5158.00   1.08623028   0.03908422
5160.00   1.02518046   0.03812771
5162.00   1.01746929   0.03743551
5164.00   0.97709787   0.03689135
5166.00   1.04019141   0.03707810
5168.00   1.08767319   0.03737911
5170.00   1.06534505   0.03701760
5172.00   1.01378071   0.03659211
5174.00   1.06707227   0.03740570
5176.00   1.06396127   0.03731902
5178.00   1.05298734   0.03720262
5180.00   1.07571435   0.03728864
5182.00   1.06319571   0.03710345
5184.00   1.10363901   0.03751520
5186.00   1.10810995   0.03764174
5188.00   1.07838345   0.03748635
5190.00   1.12048233   0.03783480
5192.00   1.09148788   0.03770046
5194.00   1.11408067   0.03819307
5196.00   1.10143018   0.03828597
5198.00   1.15849185   0.03897446
5200.00   1.16363394   0.03884467
5202.00   1.07900226   0.03815308
5204.00   1.07290101   0.03762368
5206.00   1.16851628   0.03856838
5208.00   1.10964179   0.03854712
5210.00   1.15389907   0.03891394
5212.00   1.08325195   0.03818392
5214.00   1.12247109   0.03830875
5216.00   1.12301004   0.03859358
5218.00   1.14966500   0.03884245
5220.00   1.09654999   0.03850337
5222.00   1.10855365   0.03827726
5224.00   1.11480427   0.03813128
5226.00   1.16075218   0.03808406
5228.00   1.15775013   0.03820439
5230.00   1.14746082   0.03819694
5232.00   1.18770397   0.03827154
5234.00   1.16354942   0.03823113
5236.00   1.07556224   0.03785991
5238.00   1.21718824   0.03906590
5240.00   1.21866047   0.03896664
5242.00   1.15571594   0.03834533
5244.00   1.12350690   0.03784452
5246.00   1.22285128   0.03852196
5248.00   1.14658117   0.03798437
5250.00   1.12954295   0.03779619
5252.00   1.15321851   0.03816542
5254.00   1.20057237   0.03910436
5256.00   1.20601642   0.03925480
5258.00   1.18093622   0.03901469
5260.00   1.16738009   0.03861080
5262.00   1.13218009   0.03792625
5264.00   1.14984143   0.03776963
5266.00   1.20329642   0.03790135
5268.00   1.18920553   0.03775284
5270.00   1.15662873   0.03777272
5272.00   1.20461404   0.03829656
5274.00   1.14774549   0.03789789
5276.00   1.13849664   0.03796760
5278.00   1.17237914   0.03811353
5280.00   1.18366241   0.03832720
5282.00   1.19540274   0.03862244
5284.00   1.21195483   0.03886338
5286.00   1.24040842   0.03884565
5288.00   1.17603087   0.03841019
5290.00   1.18127072   0.03834490
5292.00   1.18990052   0.03836908
5294.00   1.13879061   0.03797995
5296.00   1.17361784   0.03824010
5298.00   1.11981547   0.03796969
5300.00   1.15116191   0.03815308
5302.00   1.21555698   0.03871178
5304.00   1.23965967   0.03872702
5306.00   1.16861677   0.03831260
5308.00   1.21432471   0.03867257
5310.00   1.21116853   0.03866768
5312.00   1.18964410   0.03852988
5314.00   1.16759002   0.03829582
5316.00   1.19989955   0.03855733
5318.00   1.28114307   0.03900835
5320.00   1.15484273   0.03804973
5322.00   1.25338519   0.03879151
5324.00   1.21546805   0.03856330
5326.00   1.20327783   0.03841524
5328.00   1.20362759   0.03874089
5330.00   1.21537006   0.03875235
5332.00   1.09506726   0.03804186
5334.00   1.15237701   0.03837742
5336.00   1.18346119   0.03890121
5338.00   1.19820166   0.03905778
5340.00   1.20524442   0.03952686
5342.00   1.24329269   0.03961968
5344.00   1.21504760   0.03935714
5346.00   1.22325909   0.04001296
5348.00   1.21222281   0.04023823
5350.00   1.20206785   0.04025824
5352.00   1.16649139   0.04027562
5354.00   1.15065563   0.04042872
5356.00   1.22669435   0.04056165
5358.00   1.13233984   0.03952281
5360.00   1.21005619   0.03947151
5362.00   1.17702258   0.03903480
5364.00   1.15629601   0.03867158
5366.00   1.23244452   0.03893410
5368.00   1.12641370   0.03851093
5370.00   1.12931812   0.03863173
5372.00   1.17346084   0.03931679
5374.00   1.14902020   0.03953884
5376.00   1.18898010   0.03997392
5378.00   1.20959628   0.03997525
5380.00   1.19805121   0.04003421
5382.00   1.18185139   0.03988337
5384.00   1.17629898   0.03981135
5386.00   1.12850070   0.03962040
5388.00   1.21671653   0.04084006
5390.00   1.23453999   0.04139934
5392.00   1.21001863   0.04148615
5394.00   1.21364212   0.04145558
5396.00   1.18201137   0.04119569
5398.00   1.10379946   0.04072837
5400.00   1.15802026   0.04130603
5402.00   1.19573271   0.04179936
5404.00   1.15841699   0.04161660
5406.00   1.15593755   0.04205508
5408.00   1.14580142   0.04225452
5410.00   1.14153671   0.04323353
5412.00   1.16454923   0.04424269
5414.00   1.15238237   0.04499535
5416.00   1.15599358   0.04581647
5418.00   1.16337693   0.04626512
5420.00   1.19185042   0.04635969
5422.00   1.19198966   0.04650540
5424.00   1.13092017   0.04612475
5426.00   1.07647192   0.04582504
5428.00   1.10739207   0.04604741
5430.00   1.19320977   0.04671425
5432.00   1.13464928   0.04669962
5434.00   1.14059675   0.04726720
5436.00   1.11976945   0.04722042
5438.00   1.10466528   0.04766858
5440.00   1.06240988   0.04761310
5442.00   1.08238709   0.04826378
5444.00   1.18863726   0.04967345
5446.00   1.17488432   0.04958038
5448.00   1.03391778   0.04922300
5450.00   1.10563314   0.04963564
5452.00   1.14240873   0.05014172
5454.00   1.16745341   0.05162589
5456.00   1.11135519   0.06111258
5458.00   1.06848276   0.07360096
5460.00   1.17043936   0.07821540
5462.00   1.07211101   0.07295103
5464.00   1.13632774   0.06751072
5466.00   1.14845443   0.06281932
5468.00   1.04924703   0.05802159
5470.00   1.10127354   0.05502669
5472.00   1.15747392   0.05307702
5474.00   1.10412014   0.05174434
5476.00   1.10180724   0.05105749
5478.00   1.01276541   0.05119424
5480.00   1.02674067   0.05225138
5482.00   1.07974422   0.05334361
5484.00   1.02735889   0.05257173
5486.00   1.10942197   0.05236881
5488.00   1.08109212   0.05131783
5490.00   1.12041557   0.05107630
5492.00   1.20698702   0.05100557
5494.00   1.12709785   0.05050097
5496.00   1.14350617   0.05058482
5498.00   1.10452223   0.04987539
5500.00   0.99744493   0.04917739
5502.00   1.07111442   0.04951333
5504.00   1.07946754   0.04941415
5506.00   1.12642932   0.05002164
5508.00   1.21514225   0.05070275
5510.00   1.11340594   0.05013715
5512.00   1.05408025   0.05043420
5514.00   1.11164105   0.05124022
5516.00   1.13096714   0.05128089
5518.00   1.19753051   0.05230229
5520.00   1.04156923   0.05092974
5522.00   1.15411687   0.05167929
5524.00   1.24701858   0.05229699
5526.00   1.08977532   0.05069881
5528.00   1.04581094   0.04976311
5530.00   1.14865386   0.05016308
5532.00   1.15083194   0.05009851
5534.00   1.10193944   0.04967123
5536.00   1.06573594   0.04913232
5538.00   1.15228677   0.05009149
5540.00   1.11594510   0.05011530
5542.00   1.09554005   0.04991892
5544.00   1.13634169   0.05051815
5546.00   1.04816580   0.04986916
5548.00   1.10342741   0.05018182
5550.00   1.06620884   0.04975937
5552.00   1.17237389   0.05060431
5554.00   1.19856417   0.05125574
5556.00   1.14426243   0.05090111
5558.00   1.19056678   0.05137977
5560.00   1.15967524   0.05132957
5562.00   1.07579780   0.05101296
5564.00   1.13150883   0.05168756
5566.00   1.20796466   0.05267914
5568.00   1.18495381   0.05308645
5570.00   1.15981889   0.05297239
5572.00   1.12202644   0.06779122
5574.00   1.05480123   0.09122464
5576.00   1.18785143   0.10066459
5578.00   1.13211298   0.09187941
5580.00   1.17536438   0.08428629
5582.00   1.09034753   0.07554624
5584.00   1.13346136   0.09443181
5586.00   1.11344278   0.08148860
5588.00   1.12799764   0.07191992
5590.00   1.15991509   0.06903425
5592.00   1.14897609   0.06870746
5594.00   1.06286013   0.06722039
5596.00   1.08123147   0.06671075
5598.00   1.16294515   0.06689595
5600.00   1.20258892   0.06681042
5602.00   1.14937913   0.06586485
5604.00   1.14672911   0.06563634
5606.00   1.12853086   0.06517661
5608.00   1.09328043   0.06433291
5610.00   1.07906187   0.06355001
5612.00   1.14546573   0.06390620
5614.00   1.14605772   0.06347172
5616.00   1.09510124   0.06249619
5618.00   1.05577433   0.06172013
5620.00   1.09593678   0.06188208
5622.00   1.10950863   0.06163051
5624.00   1.11101735   0.06135364
5626.00   1.08099473   0.06080257
5628.00   1.05209064   0.06026958
5630.00   1.10937822   0.06061579
5632.00   1.13878953   0.06046748
5634.00   1.14208746   0.06009368
5636.00   1.11074829   0.05950889
5638.00   1.05914819   0.05886545
5640.00   1.03643072   0.05862128
5642.00   1.06148291   0.05873209
5644.00   1.08345163   0.05875306
5646.00   1.10746574   0.05884160
5648.00   1.13332546   0.05902402
5650.00   1.07699370   0.05819584
5652.00   1.05741239   0.05796427
5654.00   1.04119742   0.05790552
5656.00   1.03725624   0.05803649
5658.00   1.05985582   0.05845292
5660.00   1.02820623   0.05838509
5662.00   1.05315554   0.05886450
5664.00   1.10438311   0.05992746
5666.00   1.13603497   0.06117501
5668.00   1.11215281   0.06204739
5670.00   1.08273387   0.06276450
5672.00   1.06528008   0.06351641
5674.00   1.04612005   0.06434592
5676.00   1.03535223   0.06535476
5678.00   1.07538497   0.06672596
5680.00   1.07445514   0.06840718
5682.00   1.12563252   0.07069775
5684.00   1.17595804   0.07293733
5686.00   1.17555666   0.07436339
5688.00   1.15872216   0.07451142
5690.00   1.10892034   0.07315778
5692.00   1.11272478   0.07123037
5694.00   1.13454151   0.06879119
5696.00   1.11433601   0.06572429
5698.00   1.07722366   0.06257325
5700.00   1.08514798   0.06063870
5702.00   1.09610891   0.05930926
5704.00   1.10538161   0.05827254
5706.00   1.12485993   0.05749272
5708.00   1.11532438   0.05690868
5710.00   1.13145590   0.05664000
5712.00   1.14072335   0.05636692
5714.00   1.14480698   0.05603904
5716.00   1.17434227   0.05583174
5718.00   1.15267169   0.05512745
5720.00   1.14045775   0.05446244
5722.00   1.14395201   0.05396899
5724.00   1.14982140   0.05358307
5726.00   1.13340521   0.05307559
5728.00   1.13092458   0.05267397
5730.00   1.14950442   0.05237479
5732.00   1.15342391   0.05204482
5734.00   1.13564444   0.05172330
5736.00   1.18137932   0.05196271
5738.00   1.15652573   0.05148217
5740.00   1.10760963   0.05090404
5742.00   1.08599520   0.05068413
5744.00   1.11678123   0.05092655
5746.00   1.13345516   0.05084282
5748.00   1.12195814   0.05078320
5750.00   1.10291612   0.05065982
5752.00   1.09718788   0.05064026
5754.00   1.11344290   0.05094703
5756.00   1.11176479   0.05119507
5758.00   1.08963001   0.05137794
5760.00   1.04374254   0.05172896
5762.00   1.01782691   0.05264367
5764.00   1.07856691   0.05443385
5766.00   1.07218611   0.05593969
5768.00   1.08655345   0.05707655
5770.00   1.06993067   0.05718757
5772.00   1.02115428   0.05624414
5774.00   1.04342330   0.05519541
5776.00   1.02599251   0.05361165
5778.00   1.02980137   0.05221771
5780.00   1.03841770   0.05142748
5782.00   1.03152084   0.05144231
5784.00   1.03303301   0.05229288
5786.00   1.01634681   0.05352234
5788.00   1.03155184   0.05498059
5790.00   1.04565060   0.05594018
5792.00   1.01883423   0.05583050
5794.00   1.03310597   0.05535753
5796.00   1.02987337   0.05358765
5798.00   1.02167988   0.05369074
5800.00   1.01170266   0.05438854
5802.00   1.00018609   0.05289657
5804.00   1.02037561   0.05408396
5806.00   1.08077228   0.05287268
5808.00   1.09912312   0.05162669
5810.00   1.06229949   0.05143272
5812.00   1.03959811   0.05056041
5814.00   1.04240477   0.05017708
5816.00   1.06261182   0.05024029
5818.00   1.07117784   0.05032258
5820.00   1.05955923   0.05025132
5822.00   1.05736446   0.05039387
5824.00   1.06797314   0.05065692
5826.00   1.06504261   0.05079762
5828.00   1.06630695   0.05094742
5830.00   1.08017671   0.05116903
5832.00   1.05516434   0.05105984
5834.00   1.03366601   0.05104876
5836.00   1.03164351   0.05119704
5838.00   1.04131377   0.05144173
5840.00   1.04804826   0.05167465
5842.00   1.06798470   0.05192918
5844.00   1.06386864   0.05196552
5846.00   1.06725013   0.05210803
5848.00   1.07890201   0.05239028
5850.00   1.07492876   0.05260874
5852.00   1.04475129   0.05253698
5854.00   1.04776716   0.05286062
5856.00   1.07647216   0.05348998
5858.00   1.11170590   0.05416271
5860.00   1.13379860   0.05461097
5862.00   1.12231648   0.05502374
5864.00   1.11419833   0.05554390
5866.00   1.09854472   0.05596720
5868.00   1.07939708   0.05620412
5870.00   1.10331881   0.05651541
5872.00   1.09542167   0.05630226
5874.00   1.09101295   0.05632226
5876.00   1.09964168   0.05709552
5878.00   1.11295831   0.05901797
5880.00   1.09652758   0.06210061
5882.00   1.11672878   0.06885564
5884.00   1.06365061   0.07895231
5886.00   0.98785430   0.09150798
5888.00   0.98181009   0.10448434
5890.00   0.91629887   0.11278155
5892.00   0.98960477   0.11860915
5894.00   1.02098179   0.11983780
5896.00   0.99988288   0.11490712
5898.00   1.05569327   0.10337144
5900.00   1.14651906   0.09173933
5902.00   1.15985191   0.07985113
5904.00   1.11610186   0.06796402
5906.00   1.07716656   0.05823170
5908.00   1.11449993   0.05568121
5910.00   1.15434134   0.05596156
5912.00   1.17234802   0.05643423
5914.00   1.17258561   0.05662306
5916.00   1.16851890   0.05674268
5918.00   1.17307186   0.05688940
5920.00   1.15211916   0.05669647
5922.00   1.12965333   0.05649836
5924.00   1.12937319   0.05652961
5926.00   1.16015446   0.05686003
5928.00   1.19822311   0.05730531
5930.00   1.17444706   0.05726959
5932.00   1.16244113   0.05710359
5934.00   1.17819822   0.05692462
5936.00   1.19629419   0.05666858
5938.00   1.17677593   0.05613062
5940.00   1.15521824   0.05547437
5942.00   1.16283643   0.05509427
5944.00   1.18368447   0.05496269
5946.00   1.17130995   0.05471070
5948.00   1.16775167   0.05457945
5950.00   1.18863046   0.05483361
5952.00   1.21571100   0.05503802
5954.00   1.22713435   0.05489446
5956.00   1.20887053   0.05446416
5958.00   1.19740486   0.05413467
5960.00   1.17822111   0.05359230
5962.00   1.18654585   0.05326233
5964.00   1.22402942   0.05332637
5966.00   1.20619762   0.05312538
5968.00   1.18381977   0.05281514
5970.00   1.16735446   0.05270172
5972.00   1.17349303   0.05280015
5974.00   1.19605601   0.05288683
5976.00   1.15336525   0.05239679
5978.00   1.19864714   0.05264350
5980.00   1.21590757   0.05250118
5982.00   1.18335390   0.05186510
5984.00   1.14502108   0.05130035
5986.00   1.13406813   0.05111979
5988.00   1.14184701   0.05096947
5990.00   1.14100373   0.05086890
5992.00   1.13284302   0.05078881
5994.00   1.14274633   0.05065216
5996.00   1.14667535   0.05060060
5998.00   1.13397551   0.05050293
6000.00   1.13828564   0.05045259
6002.00   1.17900145   0.05055648
6004.00   1.24265635   0.05087423
6006.00   1.21411312   0.05045227
6008.00   1.17486346   0.04989888
6010.00   1.15490639   0.04947387
6012.00   1.15495312   0.04922171
6014.00   1.14409316   0.04893827
6016.00   1.15100944   0.04869814
6018.00   1.17805207   0.04873144
6020.00   1.19729984   0.04882613
6022.00   1.18482590   0.04869469
6024.00   1.17110920   0.04847128
6026.00   1.18438351   0.04855640
6028.00   1.18054187   0.04853196
6030.00   1.15722585   0.04832989
6032.00   1.14296591   0.04814291
6034.00   1.16375709   0.04810726
6036.00   1.18883705   0.04818846
6038.00   1.19752455   0.04811101
6040.00   1.18825972   0.04782877
6042.00   1.17759311   0.04754512
6044.00   1.17010415   0.04736086
6046.00   1.16865873   0.04727806
6048.00   1.16450512   0.04721363
6050.00   1.15577126   0.04710703
6052.00   1.15364659   0.04696742
6054.00   1.16652453   0.04685146
6056.00   1.16234183   0.04667202
6058.00   1.16041100   0.04661509
6060.00   1.17935288   0.04677113
6062.00   1.20259118   0.04685637
6064.00   1.18712699   0.04667572
6066.00   1.17358172   0.04655695
6068.00   1.15942001   0.04643347
6070.00   1.13467920   0.04616921
6072.00   1.13825905   0.04611398
6074.00   1.14194405   0.04616410
6076.00   1.13223076   0.04602362
6078.00   1.13172829   0.04589418
6080.00   1.17160881   0.04617604
6082.00   1.18577993   0.04629092
6084.00   1.17231143   0.04624130
6086.00   1.15676022   0.04607473
6088.00   1.15396011   0.04595567
6090.00   1.15996826   0.04610289
6092.00   1.15639842   0.04629779
6094.00   1.13300514   0.04632069
6096.00   1.12296236   0.04641872
6098.00   1.14231813   0.04681374
6100.00   1.16543114   0.04750983
6102.00   1.18822849   0.04804684
6104.00   1.17128170   0.04862099
6106.00   1.16620529   0.04958171
6108.00   1.19866312   0.05092378
6110.00   1.15524924   0.05180262
6112.00   1.12231159   0.05228627
6114.00   1.14189851   0.05268859
6116.00   1.17881882   0.05264992
6118.00   1.17451489   0.05171369
6120.00   1.14067638   0.05034980
6122.00   1.16884863   0.04931304
6124.00   1.19112015   0.04849513
6126.00   1.18535221   0.04778235
6128.00   1.17290866   0.04714212
6130.00   1.16555023   0.04681962
6132.00   1.15753651   0.04667460
6134.00   1.14479506   0.04659514
6136.00   1.13288295   0.04650794
6138.00   1.13688385   0.04641344
6140.00   1.17257464   0.04679347
6142.00   1.18096495   0.04700412
6144.00   1.17154646   0.04694924
6146.00   1.16931701   0.04681735
6148.00   1.19539785   0.04703134
6150.00   1.19998062   0.04723741
6152.00   1.17083371   0.04730469
6154.00   1.15590560   0.04756616
6156.00   1.18596876   0.04821470
6158.00   1.19230270   0.04872695
6160.00   1.15794480   0.04852220
6162.00   1.14541292   0.04796864
6164.00   1.13779688   0.04721344
6166.00   1.10081220   0.04632977
6168.00   1.12305009   0.04567343
6170.00   1.12988889   0.04491857
6172.00   1.12193501   0.04435843
6174.00   1.11306226   0.04408137
6176.00   1.12001002   0.04393550
6178.00   1.12817001   0.04361500
6180.00   1.13516474   0.04354984
6182.00   1.14217532   0.04357659
6184.00   1.14658749   0.04353094
6186.00   1.14226353   0.04336802
6188.00   1.16177356   0.04352714
6190.00   1.15694809   0.04349847
6192.00   1.14796638   0.04340496
6194.00   1.15238941   0.04340665
6196.00   1.15293550   0.04343775
6198.00   1.12879455   0.04330365
6200.00   1.12709749   0.04327367
6202.00   1.13792145   0.04333306
6204.00   1.14163625   0.04342624
6206.00   1.15630555   0.04372882
6208.00   1.18199265   0.04400240
6210.00   1.20621932   0.04418239
6212.00   1.21300614   0.04416486
6214.00   1.19648945   0.04391271
6216.00   1.20042932   0.04379359
6218.00   1.18163168   0.04344910
6220.00   1.14909554   0.04296181
6222.00   1.14275587   0.04272766
6224.00   1.20147574   0.04315889
6226.00   1.17719972   0.04290387
6228.00   1.15529478   0.04276532
6230.00   1.13757145   0.04302926
6232.00   1.12902915   0.04375876
6234.00   1.15006983   0.04480045
6236.00   1.16707838   0.04567389
6238.00   1.15721226   0.04601586
6240.00   1.13841832   0.04573504
6242.00   1.13006532   0.04496956
6244.00   1.12771928   0.04408161
6246.00   1.15417504   0.04347727
6248.00   1.18150473   0.04301515
6250.00   1.20656347   0.04297648
6252.00   1.22195220   0.04354039
6254.00   1.17020166   0.04419577
6256.00   1.15174592   0.04442832
6258.00   1.17498612   0.04480764
6260.00   1.18496001   0.04503004
6262.00   1.12507331   0.04452422
6264.00   1.11712360   0.04412508
6266.00   1.13247442   0.04339525
6268.00   1.15006018   0.04277933
6270.00   1.16576374   0.04263698
6272.00   1.18672705   0.04299651
6274.00   1.15641689   0.04263068
6276.00   1.11622584   0.04229389
6278.00   1.08792615   0.04223328
6280.00   1.08386099   0.04236277
6282.00   1.10497200   0.04228118
6284.00   1.09036362   0.04238384
6286.00   1.05381668   0.04223692
6288.00   1.02489221   0.04225971
6290.00   1.03486192   0.04282824
6292.00   1.11295617   0.04363622
6294.00   1.10843992   0.04535929
6296.00   1.11717403   0.04841925
6298.00   1.13091087   0.05142267
6300.00   1.12465274   0.05313890
6302.00   1.17199886   0.05463109
6304.00   1.15736723   0.05422877
6306.00   1.10880673   0.05145031
6308.00   1.07272995   0.04747796
6310.00   1.08810961   0.04463881
6312.00   1.11936438   0.04316500
6314.00   1.12376130   0.04195105
6316.00   1.11022294   0.04116191
6318.00   1.09837091   0.04093802
6320.00   1.10641658   0.04117989
6322.00   1.10610294   0.04103062
6324.00   1.07619095   0.04096894
6326.00   1.06836069   0.04129967
6328.00   1.09009671   0.04177312
6330.00   1.06677413   0.04147469
6332.00   1.09745026   0.04159640
6334.00   1.10864830   0.04122628
6336.00   1.09703028   0.04055216
6338.00   1.08297801   0.03996223
6340.00   1.08921194   0.03945007
6342.00   1.10679352   0.03943998
6344.00   1.11225367   0.03966631
6346.00   1.09741819   0.03978482
6348.00   1.07543576   0.03968830
6350.00   1.10565329   0.04021566
6352.00   1.09687483   0.04036628
6354.00   1.07622159   0.04036579
6356.00   1.07555103   0.04061249
6358.00   1.10938454   0.04143756
6360.00   1.09774005   0.04251298
6362.00   1.09306085   0.04311005
6364.00   1.09298611   0.04300183
6366.00   1.09212875   0.04237600
6368.00   1.08943760   0.04172536
6370.00   1.10948944   0.04050928
6372.00   1.12328672   0.03943342
6374.00   1.11760080   0.03884378
6376.00   1.10262024   0.03881806
6378.00   1.11746109   0.03915386
6380.00   1.08517992   0.03897136
6382.00   1.08480930   0.03915545
6384.00   1.10675013   0.03944243
6386.00   1.12211227   0.03941792
6388.00   1.13048255   0.03922096
6390.00   1.12830198   0.03890917
6392.00   1.11582601   0.03854774
6394.00   1.10808444   0.03828156
6396.00   1.11927795   0.03825402
6398.00   1.13616800   0.03850081
6400.00   1.13499773   0.03861779
6402.00   1.13133287   0.03867633
6404.00   1.13356113   0.03867147
6406.00   1.14133990   0.03856864
6408.00   1.15165150   0.03855815
6410.00   1.14922655   0.03841635
6412.00   1.12310338   0.03813108
6414.00   1.10661542   0.03812162
6416.00   1.16618860   0.03909817
6418.00   1.15979242   0.04024513
#6420.00   1.30901778   0.04298976
6422.00   1.11440086   0.04261694
6424.00   1.13839304   0.03799872
6426.00   1.12182367   0.03754486
6428.00   1.14507473   0.03763091
6430.00   1.15968561   0.03769587
6432.00   1.14711607   0.03748159
6434.00   1.12083447   0.03713936
6436.00   1.13466060   0.03723807
6438.00   1.12643325   0.03717824
6440.00   1.10522318   0.03696196
6442.00   1.09575939   0.03684076
6444.00   1.11447525   0.03702567
6446.00   1.10803592   0.03697667
6448.00   1.11571801   0.03705470
6450.00   1.13591278   0.03732419
6452.00   1.14655685   0.03754814
6454.00   1.12278140   0.03739784
6456.00   1.11718798   0.03736032
6458.00   1.12717199   0.03755030
6460.00   1.13762987   0.03802310
6462.00   1.14084840   0.03863062
6464.00   1.14255106   0.03906884
6466.00   1.16852343   0.03953943
6468.00   1.18352401   0.03983621
6470.00   1.18751037   0.03973429
6472.00   1.18709826   0.03923427
6474.00   1.18280041   0.03871030
6476.00   1.20904517   0.03854467
6478.00   1.21972334   0.03820797
6480.00   1.21732056   0.03780966
6482.00   1.21968746   0.03760353
6484.00   1.23255670   0.03750866
6486.00   1.24544382   0.03749675
6488.00   1.26360011   0.03761293
6490.00   1.28592932   0.03786612
6492.00   1.30407524   0.03826313
6494.00   1.29033494   0.03885382
6496.00   1.30056918   0.03981058
6498.00   1.33696139   0.04077103
6500.00   1.37749720   0.04146145
6502.00   1.39081919   0.04174435
6504.00   1.40408897   0.04148565
6506.00   1.41226876   0.04088849
6508.00   1.43025577   0.04043809
6510.00   1.45471251   0.04024455
6512.00   1.45809603   0.03987033
6514.00   1.45101118   0.03940914
6516.00   1.45181453   0.03924524
6518.00   1.46885109   0.03948755
6520.00   1.50092459   0.03997025
6522.00   1.53851604   0.04024418
6524.00   1.54053926   0.04023491
6526.00   1.52376425   0.04028105
6528.00   1.52145863   0.04066678
6530.00   1.55623102   0.04142208
6532.00   1.60419881   0.04206856
6534.00   1.60519183   0.04213958
6536.00   1.60549796   0.04204939
6538.00   1.62501180   0.04192418
6540.00   1.65416062   0.04169874
6542.00   1.63276994   0.04132662
6544.00   1.65060234   0.04137013
6546.00   1.66220462   0.04155626
6548.00   1.65646017   0.04185350
6550.00   1.66067302   0.04244037
6552.00   1.64594281   0.04257078
6554.00   1.66474152   0.04269212
6556.00   1.71249723   0.04299982
6558.00   1.74965322   0.04330267
6560.00   1.71321630   0.04301065
6562.00   1.76462781   0.04316561
6564.00   1.79396093   0.04335727
6566.00   1.77092087   0.04323940
6568.00   1.72309220   0.04275281
6570.00   1.75105953   0.04239914
6572.00   1.72930062   0.04206368
6574.00   1.73892605   0.04235060
6576.00   1.75959575   0.04278425
6578.00   1.75174236   0.04275748
6580.00   1.75585568   0.04282705
6582.00   1.75868797   0.04261838
6584.00   1.77840471   0.04231216
6586.00   1.79845083   0.04196319
6588.00   1.79060137   0.04158393
6590.00   1.78994274   0.04152613
6592.00   1.78807175   0.04149784
6594.00   1.80986023   0.04168207
6596.00   1.82878101   0.04189360
6598.00   1.78304899   0.04168594
6600.00   1.79040802   0.04201031
6602.00   1.82129920   0.04237454
6604.00   1.83452034   0.04242831
6606.00   1.82220495   0.04215400
6608.00   1.82899129   0.04197561
6610.00   1.82937086   0.04164683
6612.00   1.82899463   0.04128605
6614.00   1.81503499   0.04095828
6616.00   1.79228842   0.04077699
6618.00   1.81524277   0.04099710
6620.00   1.83444595   0.04120776
6622.00   1.85510290   0.04142237
6624.00   1.87959349   0.04163904
6626.00   1.90171897   0.04182162
6628.00   1.88271940   0.04177155
6630.00   1.88646495   0.04184851
6632.00   1.89147198   0.04208026
6634.00   1.88581908   0.04227456
6636.00   1.87040389   0.04214629
6638.00   1.86101913   0.04151607
6640.00   1.87222016   0.04137151
6642.00   1.87649882   0.04130350
6644.00   1.86332750   0.04110102
6646.00   1.84572136   0.04094596
6648.00   1.82082474   0.04071384
6650.00   1.81087005   0.04069970
6652.00   1.80299079   0.04072642
6654.00   1.79386711   0.04076706
6656.00   1.80613530   0.04116278
6658.00   1.81414843   0.04176774
6660.00   1.82899749   0.04236141
6662.00   1.82254744   0.04232155
6664.00   1.78941619   0.04151236
6666.00   1.80420172   0.04117714
6668.00   1.85249913   0.04142416
6670.00   1.85510027   0.04139224
6672.00   1.82283545   0.04107903
6674.00   1.80284584   0.04085001
6676.00   1.78887379   0.04059780
6678.00   1.75690067   0.04039812
6680.00   1.72969282   0.04023748
6682.00   1.71718311   0.04012837
6684.00   1.71521914   0.04008469
6686.00   1.71389067   0.03995400
6688.00   1.70566225   0.04020770
6690.00   1.71044672   0.04061142
6692.00   1.71390152   0.04037678
6694.00   1.67915952   0.03881423
#6696.00   1.71631718   0.03952433
#6698.00   1.92949450   0.03950034
#6700.00   1.74546015   0.04546822
6702.00   1.62665892   0.04004799
6704.00   1.62801135   0.03957593
6706.00   1.61826551   0.03951049
6708.00   1.60402739   0.03948407
6710.00   1.60047781   0.03945353
6712.00   1.60369551   0.03944819
6714.00   1.53718555   0.03883741
6716.00   1.53875351   0.03869175
6718.00   1.56729710   0.03877416
6720.00   1.58862507   0.03882561
6722.00   1.57852614   0.03861313
6724.00   1.52919924   0.03796401
6726.00   1.52620792   0.03787310
6728.00   1.53214610   0.03796189
6730.00   1.51785660   0.03789338
6732.00   1.47920990   0.03756664
6734.00   1.48398888   0.03757036
6736.00   1.49709702   0.03820704
6738.00   1.49535191   0.03863384
6740.00   1.48169947   0.03836621
6742.00   1.48579931   0.03754660
6744.00   1.47950852   0.03726244
6746.00   1.45179653   0.03698217
6748.00   1.43746459   0.03680475
6750.00   1.44774449   0.03677014
6752.00   1.43089283   0.03654697
6754.00   1.43606043   0.03658202
6756.00   1.40899909   0.03635896
6758.00   1.38346422   0.03614616
6760.00   1.39414108   0.03622546
6762.00   1.38443696   0.03604922
6764.00   1.37897635   0.03593171
6766.00   1.36388302   0.03578464
6768.00   1.34568536   0.03561923
6770.00   1.34078109   0.03552508
6772.00   1.35912764   0.03572321
6774.00   1.34399068   0.03560760
6776.00   1.33327162   0.03547463
6778.00   1.33982241   0.03546800
6780.00   1.34561861   0.03550905
6782.00   1.31447327   0.03526478
6784.00   1.31350124   0.03526752
6786.00   1.31486166   0.03528846
6788.00   1.30333614   0.03519182
6790.00   1.29899871   0.03511934
6792.00   1.32183015   0.03531811
6794.00   1.31440866   0.03520960
6796.00   1.30282032   0.03505788
6798.00   1.30647480   0.03505379
6800.00   1.28687394   0.03478337
6802.00   1.28335512   0.03480469
6804.00   1.29074037   0.03488976
6806.00   1.28758538   0.03484439
6808.00   1.26604712   0.03464651
6810.00   1.28282452   0.03477668
6812.00   1.26892328   0.03463406
6814.00   1.25019300   0.03451638
6816.00   1.24600399   0.03453089
6818.00   1.25997913   0.03462842
6820.00   1.25028670   0.03465886
6822.00   1.22513425   0.03494211
6824.00   1.23355722   0.03614189
6826.00   1.26229012   0.03792873
6828.00   1.24766493   0.03930652
6830.00   1.22245193   0.04038173
6832.00   1.22568083   0.04104893
6834.00   1.22106898   0.04063623
6836.00   1.20381176   0.03927338
6838.00   1.22667849   0.03827868
6840.00   1.20960355   0.03695022
6842.00   1.19502342   0.03565652
6844.00   1.21045744   0.03504225
6846.00   1.24924242   0.03521300
6848.00   1.24533904   0.03506441
6850.00   1.22312307   0.03423140
6852.00   1.21889842   0.03448259
6854.00   1.23536623   0.03579886
6856.00   1.25407553   0.03709541
6858.00   1.24794471   0.03663426
6860.00   1.21548283   0.03763998
6862.00   1.20214736   0.03921388
6864.00   1.20485783   0.04091394
6866.00   1.19957924   0.04280288
6868.00   1.24693453   0.04574519
6870.00   1.26869965   0.04636461
6872.00   1.24591970   0.04429047
6874.00   1.20448244   0.04096725
6876.00   1.19829881   0.03944121
6878.00   1.18386233   0.03814801
6880.00   1.17269921   0.03682436
6882.00   1.17363393   0.03610933
6884.00   1.18332899   0.03637122
6886.00   1.18252289   0.03719646
6888.00   1.15871942   0.03767997
6890.00   1.16543150   0.03801101
6892.00   1.18870389   0.03808338
6894.00   1.19771671   0.03782699
6896.00   1.17217994   0.03734823
6898.00   1.17346525   0.03719157
6900.00   1.16740382   0.03676968
6902.00   1.15223575   0.03624209
6904.00   1.14173901   0.03602655
#6906.00   1.15053427   0.03613814
#6908.00   1.16833794   0.03629323
#6910.00   1.16852558   0.03633830
#6912.00   1.16910505   0.03644413
#6914.00   1.20454931   0.03686198
#6916.00   1.21973240   0.03691804
#6918.00   1.15416086   0.03714301
#6920.00   1.24575579   0.03948357
#6922.00   1.11690521   0.04253193
#6924.00   1.13438654   0.04335797
#6926.00   1.24827111   0.04058435
6928.00   1.14109421   0.03745735
6930.00   1.14059877   0.03507673
6932.00   1.15394366   0.03381119
6934.00   1.14340866   0.03381936
6936.00   1.14667428   0.03441243
6938.00   1.15167797   0.03500540
6940.00   1.14556372   0.03531773
6942.00   1.12832987   0.03548233
6944.00   1.13199174   0.03624976
6946.00   1.12862933   0.03697446
6948.00   1.12703335   0.03725135
6950.00   1.13099301   0.03717098
6952.00   1.14103329   0.03697379
6954.00   1.15551794   0.03644111
6956.00   1.16615474   0.03514684
6958.00   1.16223752   0.03387056
6960.00   1.14288485   0.03310655
6962.00   1.11781156   0.03291783
6964.00   1.11240244   0.03312297
6966.00   1.11671674   0.03350902
6968.00   1.12271821   0.03388807
6970.00   1.12066376   0.03412943
6972.00   1.10362351   0.03422366
6974.00   1.12596810   0.03516567
6976.00   1.13454926   0.03559564
6978.00   1.12720096   0.03555586
6980.00   1.11824930   0.03536002
6982.00   1.12913024   0.03527555
6984.00   1.10931444   0.03415057
6986.00   1.15820539   0.03417968
#6988.00   1.19470572   0.03484116
6990.00   1.14808547   0.03518276
6992.00   1.13751328   0.03535333
6994.00   1.15201867   0.03441639
6996.00   1.15070927   0.03336854
6998.00   1.13323689   0.03291042
7000.00   1.12263107   0.03310841
7002.00   1.13760340   0.03334200
7004.00   1.14863002   0.03364178
7006.00   1.15567958   0.03417047
7008.00   1.15238965   0.03462644
7010.00   1.13153136   0.03449757
7012.00   1.11794245   0.03422687
7014.00   1.12729847   0.03424761
7016.00   1.13671207   0.03409044
7018.00   1.13216364   0.03344386
7020.00   1.11973131   0.03243874
7022.00   1.12785196   0.03244206
7024.00   1.12824774   0.03254283
7026.00   1.12975991   0.03261655
7028.00   1.13664997   0.03271588
7030.00   1.13011229   0.03289044
7032.00   1.10917759   0.03289958
7034.00   1.09786654   0.03278593
7036.00   1.10277927   0.03273613
7038.00   1.11941969   0.03292093
7040.00   1.13659906   0.03330146
7042.00   1.14288485   0.03379377
7044.00   1.13504779   0.03395689
7046.00   1.11723936   0.03382207
7048.00   1.10134137   0.03370796
7050.00   1.11496484   0.03393057
7052.00   1.12275100   0.03394284
7054.00   1.12107146   0.03375004
7056.00   1.12486124   0.03348056
7058.00   1.15260208   0.03329688
7060.00   1.13831747   0.03301510
7062.00   1.13061523   0.03303118
7064.00   1.11958277   0.03308729
7066.00   1.10441267   0.03304598
7068.00   1.10476494   0.03306122
7070.00   1.11394465   0.03311178
7072.00   1.12415886   0.03315001
7074.00   1.13478100   0.03322614
7076.00   1.14485109   0.03333321
7078.00   1.14908099   0.03330787
7080.00   1.14537680   0.03330394
7082.00   1.14170206   0.03332117
7084.00   1.14837706   0.03347422
7086.00   1.16213143   0.03374438
7088.00   1.13562763   0.03360082
7090.00   1.13972390   0.03365064
7092.00   1.13535929   0.03348356
7094.00   1.13086975   0.03318347
7096.00   1.15218663   0.03309644
7098.00   1.16039813   0.03311132
7100.00   1.15784252   0.03312558
7102.00   1.15206897   0.03296944
7104.00   1.14547765   0.03270591
7106.00   1.13661754   0.03260168
7108.00   1.14509189   0.03282662
7110.00   1.16359305   0.03298267
7112.00   1.15294564   0.03278404
7114.00   1.12175119   0.03243682
7116.00   1.14384842   0.03270946
7118.00   1.12672901   0.03251324
7120.00   1.12247026   0.03244323
7122.00   1.12386858   0.03260620
7124.00   1.11831808   0.03286744
7126.00   1.11392653   0.03288369
7128.00   1.12565482   0.03302087
7130.00   1.13810837   0.03303814
7132.00   1.14511478   0.03295120
7134.00   1.14497900   0.03285226
7136.00   1.13605273   0.03268501
7138.00   1.12239170   0.03273270
7140.00   1.12523782   0.03305255
7142.00   1.14158297   0.03340796
7144.00   1.15326869   0.03349089
7146.00   1.15608823   0.03354368
7148.00   1.14910042   0.03327059
7150.00   1.13193715   0.03294606
7152.00   1.11803770   0.03276829
7154.00   1.12830460   0.03275509
7156.00   1.13436186   0.03263171
7158.00   1.14141285   0.03267013
7160.00   1.14097476   0.03276278
7162.00   1.13092411   0.03274846
7164.00   1.12084210   0.03250353
7166.00   1.11750281   0.03257061
7168.00   1.11197221   0.03278331
7170.00   1.10791957   0.03300748
7172.00   1.11189902   0.03318179
7174.00   1.13083506   0.03342628
7176.00   1.11708605   0.03323101
7178.00   1.13230276   0.03346876
7180.00   1.14622176   0.03364269
7182.00   1.11572075   0.03309498
7184.00   1.10341084   0.03282313
7186.00   1.10858691   0.03291140
7188.00   1.11440885   0.03295686
7190.00   1.11725032   0.03279502
7192.00   1.12325525   0.03254142
7194.00   1.13184261   0.03282544
7196.00   1.13994598   0.03302155
7198.00   1.15095651   0.03308899
7200.00   1.14907670   0.03298080
7202.00   1.10764647   0.03263205
7204.00   1.11203706   0.03265832
7206.00   1.11977875   0.03265129
7208.00   1.12266850   0.03243808
7210.00   1.12293136   0.03215660
7212.00   1.12917256   0.03232529
7214.00   1.13453245   0.03218573
7216.00   1.12366056   0.03213436
7218.00   1.12370598   0.03229598
7220.00   1.14445662   0.03254971
7222.00   1.12019479   0.03240493
7224.00   1.10119188   0.03212736
7226.00   1.11001730   0.03228752
7228.00   1.13299680   0.03268461
7230.00   1.14199293   0.03293724
7232.00   1.13357663   0.03338541
7234.00   1.10549212   0.03542065
7236.00   1.12384367   0.03908271
7238.00   1.13873076   0.04276422
7240.00   1.05619109   0.04484111
7242.00   1.09067333   0.04738648
7244.00   1.06761420   0.04727419
7246.00   1.05668330   0.04525843
7248.00   1.09158432   0.04262862
7250.00   1.13148344   0.04073809
7252.00   1.13190651   0.03808822
7254.00   1.11968243   0.03615547
7256.00   1.11613357   0.03521977
7258.00   1.12245381   0.03472988
7260.00   1.10857594   0.03338192
7262.00   1.11096108   0.03294522
7264.00   1.11830509   0.03308461
7266.00   1.13527668   0.03349258
7268.00   1.15402400   0.03413631
7270.00   1.11996686   0.03546979
7272.00   1.11689198   0.03969219
7274.00   1.10690224   0.04301107
7276.00   1.08844721   0.04445510
7278.00   1.08067310   0.04456070
7280.00   1.10994482   0.04524633
7282.00   1.10730946   0.04299236
7284.00   1.10540164   0.03964037
7286.00   1.09741843   0.03732900
#7288.00   1.04042923   0.03753741
7290.00   1.09849286   0.03855921
7292.00   1.12455988   0.03222813
7294.00   1.13421941   0.02873119
7296.00   1.11985505   0.03505282
#7298.00   0.96262735   0.03709451
#7300.00   1.06780827   0.03615541
7302.00   1.09507334   0.03558614
7304.00   1.09907687   0.03561594
7306.00   1.11963689   0.03568019
7308.00   1.13815546   0.03568955
7310.00   1.12910855   0.03577663
7312.00   1.12046003   0.03771815
7314.00   1.11205745   0.04011172
7316.00   1.09968233   0.04125105
7318.00   1.09780157   0.04120966
7320.00   1.09996545   0.03993665
7322.00   1.09438372   0.03742279
7324.00   1.09751594   0.03539493
7326.00   1.12524140   0.03585491
7328.00   1.11763215   0.03640539
7330.00   1.10813582   0.03640379
7332.00   1.11445928   0.03628137
7334.00   1.12067997   0.03661320
7336.00   1.09592032   0.03790613
7338.00   1.12431777   0.04075713
7340.00   1.10545027   0.04216072
7342.00   1.09087360   0.04254286
7344.00   1.10543001   0.04203096
7346.00   1.11077225   0.03987156
7348.00   1.09274530   0.03580153
7350.00   1.09297574   0.03304800
7352.00   1.10039532   0.03264980
7354.00   1.09787166   0.03398607
7356.00   1.08273137   0.03543376
7358.00   1.11843693   0.03646335
7360.00   1.11232507   0.03763020
7362.00   1.07884729   0.03935431
7364.00   1.07496476   0.04184644
7366.00   1.10209286   0.04468180
7368.00   1.14059508   0.04097095
7370.00   1.10398793   0.04077765
7372.00   1.06100845   0.03966512
7374.00   1.08991265   0.03856579
7376.00   1.10692489   0.03555204
7378.00   1.16785097   0.03570053
7380.00   1.07838523   0.03180040
7382.00   1.11816990   0.03187371
7384.00   1.10505354   0.03204811
7386.00   1.08878374   0.03250189
7388.00   1.10223377   0.03361509
7390.00   1.12606800   0.03470895
7392.00   1.13940132   0.03533792
7394.00   1.13567364   0.03558617
7396.00   1.12992096   0.03626336
7398.00   1.11635244   0.03711489
7400.00   1.10824621   0.03776749
7402.00   1.10866916   0.03794951
7404.00   1.08705425   0.03765987
7406.00   1.10763025   0.03705561
7408.00   1.11163461   0.03506604
7410.00   1.10997629   0.03284001
7412.00   1.12427628   0.03207580
7414.00   1.11128855   0.03191180
7416.00   1.09755313   0.03187074
7418.00   1.08393157   0.03172099
7420.00   1.07710719   0.03153420
7422.00   1.08419323   0.03159132
7424.00   1.10243464   0.03214177
7426.00   1.09690678   0.03248725
#7428.00   1.03958964   0.03464365
7430.00   1.11365950   0.03531995
7432.00   1.11659336   0.03421696
7434.00   1.09553063   0.03717154
7436.00   1.06367314   0.04026845
#7438.00   0.89521664   0.03841028
7440.00   1.05794072   0.03400252
7442.00   1.09023166   0.03471344
7444.00   1.07693303   0.03337732
7446.00   1.07275975   0.03207054
7448.00   1.07553470   0.03135077
7450.00   1.07725930   0.03127133
7452.00   1.10670316   0.03159725
7454.00   1.10913670   0.03166022
7456.00   1.09501636   0.03170965
7458.00   1.08712709   0.03196865
7460.00   1.10158503   0.03254228
7462.00   1.11121893   0.03320929
7464.00   1.10183060   0.03362956
7466.00   1.09444511   0.03416263
7468.00   1.09783161   0.03489162
7470.00   1.10683799   0.03562247
7472.00   1.09969330   0.03571574
7474.00   1.09447849   0.03597669
7476.00   1.09163761   0.03629133
7478.00   1.09376395   0.03651590
7480.00   1.10424984   0.03658265
7482.00   1.08128941   0.03627438
7484.00   1.08231962   0.03586149
7486.00   1.10439086   0.03526476
7488.00   1.12202632   0.03440158
7490.00   1.09865201   0.03329461
7492.00   1.08489954   0.03262233
7494.00   1.08835745   0.03240229
7496.00   1.09626615   0.03238446
7498.00   1.09755504   0.03230625
7500.00   1.10553515   0.03215949
7502.00   1.11162007   0.03194908
7504.00   1.11154461   0.03180485
7506.00   1.10658419   0.03172629
7508.00   1.09891164   0.03163461
7510.00   1.07863986   0.03139687
7512.00   1.08317828   0.03164803
7514.00   1.10902691   0.03212569
7516.00   1.12896872   0.03288236
7518.00   1.11093199   0.03421820
7520.00   1.08285868   0.03658698
7522.00   1.07687342   0.03817413
7524.00   1.09179103   0.03906028
7526.00   1.10884297   0.03939621
7528.00   1.10106027   0.03913550
7530.00   1.09851468   0.03708319
7532.00   1.11206257   0.03511465
7534.00   1.11720669   0.03391473
7536.00   1.10468328   0.03342552
7538.00   1.10421073   0.03286028
7540.00   1.08812678   0.03233412
7542.00   1.07990646   0.03209360
7544.00   1.08669674   0.03206382
7546.00   1.10116708   0.03204176
7548.00   1.09390032   0.03180901
7550.00   1.10822403   0.03194278
7552.00   1.10641527   0.03229849
7554.00   1.08641207   0.03269725
7556.00   1.06663048   0.03296389
7558.00   1.06667244   0.03301675
7560.00   1.04318678   0.03273951
7562.00   1.04113722   0.03247987
7564.00   1.07225978   0.03277024
7566.00   1.11257362   0.03403516
7568.00   1.11853588   0.03583647
7570.00   1.11205041   0.03703552
7572.00   1.10437751   0.03756723
7574.00   1.10072875   0.03744879
7576.00   1.09893072   0.03662632
7578.00   1.07958353   0.03440630
7580.00   1.08238435   0.03292406
7582.00   1.08772290   0.03269894
7584.00   1.08015442   0.03327215
7586.00   1.07776058   0.03356844
7588.00   1.07341337   0.03360207
7590.00   1.05799091   0.03377390
7592.00   1.05486858   0.03521527
7594.00   1.07602167   0.03928636
7596.00   1.07053792   0.04703743
7598.00   1.04129016   0.05600522
7600.00   1.07556999   0.06695906
7602.00   1.12698829   0.07627123
7604.00   1.10514784   0.07991333
7606.00   1.07861269   0.07417612
7608.00   1.06232882   0.06734427
7610.00   1.04478681   0.06061889
7612.00   1.03615677   0.05457218
7614.00   1.05896890   0.04925502
7616.00   1.08118606   0.04388057
7618.00   1.05388379   0.03992567
7620.00   1.03492391   0.03915085
7622.00   1.05266094   0.04204738
7624.00   1.07440579   0.04717484
7626.00   1.06847858   0.05098381
7628.00   1.05949199   0.05270253
7630.00   1.06925488   0.05270047
7632.00   1.08199561   0.05119171
7634.00   1.00979102   0.04724609
7636.00   1.02618802   0.04460737
7638.00   1.05155706   0.04314809
7640.00   1.03789175   0.04192108
7642.00   0.98674983   0.04017934
7644.00   1.01032913   0.03944610
7646.00   1.02731836   0.03896023
7648.00   1.01943076   0.03849738
7650.00   1.00113690   0.03809926
7652.00   1.00391340   0.03793197
7654.00   1.04450440   0.03788149
7656.00   1.02629817   0.03734686
7658.00   0.99872535   0.03708113
7660.00   0.98648328   0.03713595
7662.00   0.97916412   0.03685373
7664.00   0.98626000   0.03636780
7666.00   0.97494960   0.03534404
7668.00   0.96816379   0.03407386
7670.00   0.98069239   0.03299108
7672.00   1.00205851   0.03246543
7674.00   0.99651808   0.03176838
7676.00   0.99050313   0.03139703
7678.00   0.99351233   0.03151046
7680.00   1.00366771   0.03189949
7682.00   1.00584817   0.03186898
7684.00   1.01295674   0.03206728
7686.00   0.98659849   0.03205419
7688.00   0.96831489   0.03217283
7690.00   0.99953288   0.03273578
7692.00   1.01172245   0.03296329
7694.00   1.00639188   0.03315762
7696.00   0.99553758   0.03345209
7698.00   0.98774624   0.03362634
7700.00   0.98621225   0.03340566
7702.00   0.98631191   0.03339725
7704.00   0.97639054   0.03286189
7706.00   0.98206252   0.03367705
7708.00   1.00131452   0.03690077
7710.00   1.00474584   0.04198202
7712.00   0.99829847   0.04642184
7714.00   0.95806694   0.04909946
7716.00   0.95645690   0.04982079
7718.00   0.99480945   0.04854706
7720.00   0.95454025   0.04523710
7722.00   0.95309156   0.04190872
7724.00   0.96410632   0.03833104
7726.00   0.96566677   0.03557129
7728.00   0.95600080   0.03446741
7730.00   0.98024291   0.03405504
7732.00   0.98027688   0.03315591
7734.00   0.97286421   0.03251645
7736.00   0.97321081   0.03233429
7738.00   0.98506880   0.03241334
7740.00   0.97166109   0.03215704
7742.00   0.96947342   0.03200704
7744.00   0.99368685   0.03451010
7746.00   1.01734507   0.03925126
7748.00   0.99953222   0.04394143
7750.00   0.98283672   0.04543230
7752.00   0.97959369   0.04590527
7754.00   1.00905550   0.04563060
7756.00   1.03320467   0.04392883
7758.00   0.97626704   0.03957965
7760.00   0.99361926   0.03754759
7762.00   0.99551743   0.03672458
7764.00   1.00398672   0.03598656
7766.00   1.02903521   0.03474002
7768.00   1.03202426   0.03346903
7770.00   1.01207733   0.03337384
7772.00   0.99867296   0.03353261
7774.00   0.99918413   0.03413117
7776.00   1.01059806   0.03528258
7778.00   1.02759612   0.03632486
7780.00   1.02296185   0.03608484
7782.00   1.01844227   0.03573037
7784.00   1.02484787   0.03532979
7786.00   1.04344988   0.03489296
7788.00   1.06851637   0.03620019
7790.00   1.04672229   0.03950578
7792.00   1.01209009   0.04182386
7794.00   1.00183713   0.04244481
7796.00   1.03447878   0.04208061
7798.00   1.03519809   0.04066166
7800.00   1.03473818   0.03709568
7802.00   1.03861082   0.03437987
7804.00   1.05135381   0.03470364
7806.00   1.07657564   0.03724352
7808.00   1.09797561   0.03805408
7810.00   1.08406198   0.03794952
7812.00   1.05706990   0.03708404
7814.00   1.04681838   0.03640725
7816.00   1.07208872   0.03807302
7818.00   1.06499946   0.04152879
7820.00   1.06122553   0.04382679
7822.00   1.07357562   0.04468313
7824.00   1.08986521   0.04433437
7826.00   1.05029917   0.04222341
7828.00   1.05333745   0.03779044
7830.00   1.08172166   0.03385767
7832.00   1.09592140   0.03207892
7834.00   1.06887639   0.03251474
7836.00   1.06903636   0.03431664
7838.00   1.08619750   0.03625342
7840.00   1.09943998   0.03727855
7842.00   1.10298741   0.03740305
7844.00   1.10210574   0.03742707
7846.00   1.07483757   0.03802263
7848.00   1.05488074   0.04085430
7850.00   1.05524826   0.04449022
7852.00   1.05849206   0.04725372
7854.00   1.02358592   0.04798187
7856.00   1.04604244   0.04932210
7858.00   1.08743906   0.04829435
7860.00   1.11267483   0.04499941
7862.00   1.10974455   0.04121427
7864.00   1.10793328   0.04069722
7866.00   1.08805978   0.04105936
7868.00   1.09051394   0.04143129
7870.00   1.09617364   0.04145738
7872.00   1.08161879   0.04124350
7874.00   1.07508039   0.04134869
7876.00   1.07054377   0.04066051
7878.00   1.07472718   0.03973997
7880.00   1.07951581   0.03911590
7882.00   1.07290697   0.03912066
7884.00   1.06161344   0.03942204
7886.00   1.06267560   0.04033222
7888.00   1.08633411   0.04101074
7890.00   1.11022294   0.04112593
7892.00   1.09675348   0.04079189
7894.00   1.09164965   0.03945357
7896.00   1.11566639   0.03694583
7898.00   1.11839318   0.03435256
7900.00   1.09267962   0.03283338
7902.00   1.09634721   0.03289748
7904.00   1.09971726   0.03277393
7906.00   1.10464537   0.03418741
7908.00   1.09798443   0.03855944
7910.00   1.07748139   0.04457057
7912.00   1.06431234   0.04843873
7914.00   1.09517550   0.04977590
7916.00   1.09200561   0.05074890
7918.00   1.07239306   0.05019194
7920.00   1.07668841   0.04675804
7922.00   1.09401834   0.04234973
7924.00   1.09078121   0.04108921
7926.00   1.07930636   0.04061330
7928.00   1.07205915   0.03982854
7930.00   1.07634580   0.03892162
7932.00   1.07801330   0.03873441
7934.00   1.09395874   0.03851298
7936.00   1.11248517   0.03741396
7938.00   1.11156881   0.03530138
7940.00   1.07524633   0.03302043
7942.00   1.09153378   0.03329147
7944.00   1.11562049   0.03514535
7946.00   1.11538351   0.03670974
7948.00   1.09023380   0.03711775
7950.00   1.07825422   0.03686124
7952.00   1.08284366   0.03655474
7954.00   1.09719479   0.03535567
7956.00   1.10840619   0.03411685
7958.00   1.10678744   0.03464282
7960.00   1.09169590   0.03905916
7962.00   1.09303582   0.04327167
7964.00   1.07327116   0.04520328
7966.00   1.05136120   0.04525843
7968.00   1.05608571   0.04426846
7970.00   1.06999302   0.04106556
7972.00   1.08281052   0.03739199
7974.00   1.08447874   0.03654802
7976.00   1.06863141   0.03814177
7978.00   1.04358637   0.03925005
7980.00   1.08119440   0.03963990
7982.00   1.08556533   0.03918812
7984.00   1.08169782   0.03772998
7986.00   1.08070648   0.03663221
7988.00   1.06942272   0.03840842
7990.00   1.03603017   0.04286584
7992.00   1.04905200   0.04568743
7994.00   1.06945050   0.04701449
7996.00   1.06575823   0.04666062
7998.00   1.04953718   0.04310809
8000.00   1.04958069   0.03742107
8002.00   1.06797564   0.03374178
8004.00   1.08239901   0.03264621
8006.00   1.07230473   0.03277523
8008.00   1.03572571   0.03318587
8010.00   1.02892280   0.03485785
8012.00   1.03950417   0.03634906
8014.00   1.04761779   0.03716359
8016.00   1.03838968   0.03737763
8018.00   1.02492702   0.03729391
8020.00   1.05068076   0.03871100
8022.00   1.05917788   0.04117843
8024.00   1.04364002   0.04335846
8026.00   1.03240633   0.04393990
8028.00   1.02544558   0.04347481
8030.00   1.01309872   0.04111997
8032.00   1.02028835   0.03752886
8034.00   1.04888308   0.03410807
8036.00   1.07334304   0.03274533
8038.00   1.07234085   0.03229501
8040.00   1.06270397   0.03194888
8042.00   1.04981124   0.03168298
8044.00   1.04318953   0.03178992
8046.00   1.06049204   0.03266245
8048.00   1.03881419   0.03376781
8050.00   1.03075778   0.03461877
8052.00   1.03935909   0.03513111
8054.00   1.04760540   0.03546893
8056.00   1.02779102   0.03589830
8058.00   1.03927052   0.03707542
8060.00   1.04259658   0.03811568
8062.00   1.03901923   0.03858704
8064.00   1.04657924   0.03837726
8066.00   1.07259333   0.03771641
8068.00   1.06579590   0.03544706
8070.00   1.04704034   0.03299228
8072.00   1.03530204   0.03163574
8074.00   1.04043961   0.03184498
8076.00   1.05271828   0.03200719
8078.00   1.04056227   0.03189056
8080.00   1.02539527   0.03177266
8082.00   1.02615678   0.03190327
8084.00   1.04657590   0.03233353
8086.00   1.04478943   0.03247981
8088.00   1.04919243   0.03275983
8090.00   1.05302584   0.03319347
8092.00   1.04847050   0.03357925
8094.00   1.03811300   0.03352071
8096.00   1.03134727   0.03390544
8098.00   1.04363668   0.03488151
8100.00   1.04930747   0.03555542
8102.00   1.03188586   0.03533253
8104.00   1.03513730   0.03514503
8106.00   1.04343677   0.03504026
8108.00   1.03507030   0.03418565
8110.00   1.02528191   0.03297957
8112.00   1.03740370   0.03236335
8114.00   1.04660046   0.03238507
8116.00   1.02726114   0.03220670
8118.00   1.02328682   0.03206261
8120.00   1.04071963   0.03201493
8122.00   1.05247855   0.03194055
8124.00   1.05084705   0.03181768
8126.00   1.03237283   0.03175473
8128.00   1.01717710   0.03173194
8130.00   1.01572025   0.03180536
8132.00   1.02183080   0.03210725
8134.00   1.03025997   0.03274214
8136.00   1.03949189   0.03304853
8138.00   1.02256906   0.03294465
8140.00   0.98650026   0.03278328
8142.00   1.00452077   0.03336936
8144.00   1.01201642   0.03388563
8146.00   1.02412605   0.03410997
8148.00   1.04212999   0.03410275
8150.00   1.05806351   0.03392888
8152.00   1.04879582   0.03325358
8154.00   1.05071843   0.03280230
8156.00   1.04474914   0.03255050
8158.00   1.02529681   0.03230582
8160.00   1.00284672   0.03198792
8162.00   1.02456725   0.03250086
8164.00   1.01585925   0.03269079
8166.00   1.01162755   0.03282526
8168.00   1.02625406   0.03298501
8170.00   1.04403472   0.03304298
8172.00   1.00378168   0.03299334
8174.00   0.99727488   0.03388100
8176.00   1.00319910   0.03546093
8178.00   1.00069368   0.03744170
8180.00   0.99342853   0.03972577
8182.00   1.01648676   0.04112354
8184.00   1.02721262   0.04203628
8186.00   1.03005230   0.04256728
8188.00   1.03725433   0.04291192
8190.00   1.05450022   0.04351330
8192.00   1.01536191   0.04365457
8194.00   1.00216734   0.04381160
8196.00   1.00512016   0.04396396
8198.00   0.99674517   0.04364957
8200.00   1.01299417   0.04161936
8202.00   1.01177537   0.03882870
8204.00   1.01890421   0.03677704
8206.00   1.02965617   0.03577826
8208.00   1.02748406   0.03514483
8210.00   1.03455067   0.03468978
8212.00   1.03661025   0.03422489
8214.00   1.02762365   0.03365843
8216.00   1.01959336   0.03314144
8218.00   1.03301299   0.03297528
8220.00   1.02746785   0.03292946
8222.00   1.02342808   0.03284176
8224.00   1.02415216   0.03283320
8226.00   1.02639639   0.03301558
8228.00   1.02221453   0.03338325
8230.00   1.00863278   0.03309014
8232.00   1.01172864   0.03268331
8234.00   1.02609587   0.03242845
8236.00   1.03565729   0.03234107
8238.00   1.02154350   0.03204179
8240.00   1.03185463   0.03232385
8242.00   1.02872765   0.03260916
8244.00   1.01265395   0.03260350
8246.00   1.00269139   0.03232074
8248.00   1.02515996   0.03234772
8250.00   1.02936637   0.03223673
8252.00   1.02901638   0.03201777
8254.00   1.02453518   0.03180274
8256.00   1.01135254   0.03172025
8258.00   1.00744534   0.03176712
8260.00   1.01714790   0.03171305
8262.00   1.02051318   0.03161616
8264.00   1.01772916   0.03159568
8266.00   1.02770126   0.03175463
8268.00   1.03409731   0.03180111
8270.00   1.02370548   0.03199504
8272.00   1.00317061   0.03299711
8274.00   0.98919988   0.03543060
8276.00   1.00356722   0.03953857
8278.00   1.00588417   0.04318459
8280.00   1.00071847   0.04551092
8282.00   0.98889017   0.04761024
8284.00   0.98068190   0.04997179
8286.00   1.00688183   0.05116693
8288.00   1.03401959   0.04961632
8290.00   1.03804576   0.04823809
8292.00   1.02771866   0.04800866
8294.00   1.02359724   0.04850895
8296.00   1.02823222   0.04857188
8298.00   1.00985277   0.04812261
8300.00   1.00242484   0.04764419
8302.00   1.01894081   0.04619530
8304.00   1.04541278   0.04232920
8306.00   1.01120138   0.03808512
8308.00   1.01282656   0.03693187
8310.00   1.02030420   0.03712067
8312.00   1.01030409   0.03701985
8314.00   0.98619890   0.03634163
8316.00   1.00909984   0.03521566
8318.00   1.00051498   0.03337499
8320.00   0.99949151   0.03215371
8322.00   1.02083004   0.03208186
8324.00   1.00857580   0.03167084
8326.00   1.00459003   0.03148662
8328.00   0.99963379   0.03137233
8330.00   0.98879880   0.03117826
8332.00   0.97486943   0.03099012
8334.00   0.97397500   0.03126226
8336.00   1.01006019   0.03285236
8338.00   1.02285004   0.03927857
8340.00   1.00321138   0.04826747
8342.00   0.97588152   0.05611767
8344.00   0.98615694   0.05867940
8346.00   0.99458575   0.05950065
8348.00   0.96105099   0.05850150
8350.00   0.92229825   0.05464935
8352.00   0.94910437   0.04704339
8354.00   0.96700019   0.04322189
8356.00   0.96875429   0.04155909
8358.00   0.95309973   0.03955278
8360.00   0.93348855   0.03680912
8362.00   0.93407887   0.03593904
8364.00   0.95869875   0.03613389
8366.00   0.96737593   0.03596675
8368.00   0.95940036   0.03507567
8370.00   0.94804007   0.03356142
8372.00   0.95187974   0.03179540
8374.00   0.96011823   0.03152043
8376.00   0.95903760   0.03355062
8378.00   0.96161824   0.03675523
8380.00   0.97419518   0.03944233
8382.00   0.95976543   0.04000465
8384.00   0.96894073   0.04009038
8386.00   0.97587699   0.03863076
8388.00   0.94350624   0.03573540
8390.00   0.91023868   0.03381434
8392.00   0.90095001   0.04023145
8394.00   0.93539560   0.04234777
8396.00   0.97172290   0.04916786
#8398.00   0.77974415   0.05469972
#8400.00   0.81597406   0.05087129
#8402.00   0.86192721   0.05084720
8404.00   0.92384505   0.04563481
8406.00   0.93251634   0.03764666
8408.00   0.90088463   0.03219658
8410.00   0.93257880   0.03488947
8412.00   0.92555141   0.03878082
8414.00   0.91962266   0.04023784
8416.00   0.89915186   0.04018025
8418.00   0.86455458   0.03948706
8420.00   0.86143726   0.03709477
8422.00   0.89358282   0.03491294
8424.00   0.88701272   0.03806041
8426.00   0.86112648   0.04527778
8428.00   0.85866863   0.05214227
8430.00   0.88567466   0.05330636
8432.00   0.87669867   0.05309239
8434.00   0.89770621   0.04998478
8436.00   0.93108624   0.04341054
8438.00   0.92739218   0.03419668
8440.00   0.91538095   0.03031575
8442.00   0.89559335   0.02924638
8444.00   0.90101314   0.02997941
8446.00   0.91805702   0.03208446
8448.00   0.90378398   0.03552391
8450.00   0.91211081   0.03837083
8452.00   0.91283131   0.03920063
8454.00   0.89962167   0.03880442
8456.00   0.88898295   0.03790315
8458.00   0.91521138   0.03684864
8460.00   0.89112598   0.03915536
8462.00   0.90824825   0.04455411
8464.00   0.92351609   0.04832862
8466.00   0.90996820   0.04849584
8468.00   0.93790692   0.04788382
8470.00   0.91379952   0.04395616
8472.00   0.91125077   0.03741016
8474.00   0.93271142   0.03159962
8476.00   0.95086718   0.03042890
8478.00   0.93735695   0.03024887
8480.00   0.92044944   0.02989328
8482.00   0.91652679   0.02960221
8484.00   0.92351991   0.02959023
8486.00   0.92819214   0.03017935
8488.00   0.92148322   0.03225957
8490.00   0.93952936   0.03495336
8492.00   0.95499253   0.03658121
8494.00   0.95085210   0.03682273
8496.00   0.92943925   0.03648921
8498.00   0.92193913   0.03654628
8500.00   0.91627836   0.03843709
8502.00   0.90831661   0.04052116
8504.00   0.89857292   0.04158999
8506.00   0.89254528   0.04156866
8508.00   0.91859293   0.04080909
8510.00   0.94375092   0.03748309
8512.00   0.94778889   0.03303399
8514.00   0.93417311   0.02998705
8516.00   0.94477469   0.02983940
8518.00   0.95074612   0.03003086
8520.00   0.94266003   0.03001460
8522.00   0.94095069   0.02995488
8524.00   0.95868188   0.03013417
8526.00   0.94179481   0.02982517
8528.00   0.93650150   0.02959979
8530.00   0.94061041   0.02959775
8532.00   0.94665426   0.03014390
8534.00   0.94674104   0.03140257
8536.00   0.94618315   0.03256429
8538.00   0.94233984   0.03295487
8540.00   0.95650369   0.03323988
8542.00   0.97915810   0.03392057
8544.00   0.97450942   0.03506770
8546.00   0.95347214   0.03581458
8548.00   0.93383884   0.03599185
8550.00   0.94026202   0.03602521
8552.00   0.96812439   0.03571071
8554.00   0.97358847   0.03382588
8556.00   0.95326489   0.03125811
8558.00   0.96457386   0.02996755
8560.00   0.98214501   0.02978033
8562.00   0.97738504   0.02980682
8564.00   0.97115040   0.02973575
8566.00   0.97440881   0.02981205
8568.00   0.98090988   0.02997486
8570.00   0.99063724   0.03023048
8572.00   0.99898940   0.03051108
8574.00   0.97432870   0.03040752
8576.00   0.96579570   0.03035029
8578.00   0.97474527   0.03032473
8580.00   0.99687266   0.03043834
8582.00   1.01985085   0.03080798
8584.00   1.00214779   0.03124022
8586.00   0.99645662   0.03168786
8588.00   1.01282704   0.03220073
8590.00   1.02956665   0.03271642
8592.00   1.00660121   0.03308231
8594.00   0.99580950   0.03346568
8596.00   1.00631106   0.03341617
8598.00   1.02687132   0.03323941
8600.00   1.04130828   0.03305999
8602.00   1.03640127   0.03249227
8604.00   1.02086461   0.03142720
8606.00   1.00758362   0.03093327
8608.00   1.01937103   0.03133108
8610.00   1.05232131   0.03234864
8612.00   1.03591669   0.03319499
8614.00   1.03732932   0.03449371
8616.00   1.02122974   0.03589256
8618.00   1.00635660   0.03746817
8620.00   1.02086031   0.03929048
8622.00   1.03705978   0.04090125
8624.00   0.99792987   0.04194603
8626.00   0.98837513   0.04288773
8628.00   1.02208459   0.04370184
8630.00   1.05060029   0.04400453
8632.00   1.02003849   0.04340109
8634.00   1.00271225   0.04232407
8636.00   1.00401342   0.04101992
8638.00   1.00607002   0.03946527
8640.00   0.98209125   0.03740627
8642.00   1.01450503   0.03620050
8644.00   1.01889431   0.03590396
8646.00   1.01470065   0.03659116
8648.00   1.01627982   0.03800527
8650.00   0.99304658   0.03954727
8652.00   0.99663514   0.04122569
8654.00   1.01615024   0.04248471
8656.00   1.02848160   0.04305422
8658.00   1.02195370   0.04301651
8660.00   1.02806199   0.04308138
8662.00   1.00512850   0.04255109
8664.00   1.00628459   0.04215674
8666.00   1.01299953   0.04172108
8668.00   0.99610931   0.04083408
8670.00   1.04745257   0.04032386
8672.00   1.05994570   0.03954310
8674.00   1.04040670   0.03846538
8676.00   1.01828396   0.03735432
8678.00   1.02577436   0.03658146
8680.00   1.02976406   0.03569372
8682.00   1.04257572   0.03496558
8684.00   1.05467713   0.03431337
8686.00   1.06111336   0.03368134
8688.00   1.06545520   0.03311792
8690.00   1.06050551   0.03265104
8692.00   1.05789673   0.03223542
8694.00   1.05298376   0.03193457
8696.00   1.04555619   0.03179284
8698.00   1.04886162   0.03177710
8700.00   1.06671047   0.03183726
8702.00   1.06572771   0.03190382
8704.00   1.05455959   0.03186977
8706.00   1.04979694   0.03165636
8708.00   1.04306841   0.03126017
8710.00   1.04111660   0.03099921
8712.00   1.04615843   0.03071517
8714.00   1.04792392   0.03034697
8716.00   1.03736866   0.02995758
8718.00   1.04146433   0.02986510
8720.00   1.03328609   0.02981906
8722.00   1.03310490   0.02994913
8724.00   1.04374969   0.03016149
8726.00   1.05023587   0.03020811
8728.00   1.03634501   0.03008085
8730.00   1.03533173   0.02996298
8732.00   1.03850377   0.02991880
8734.00   1.03675973   0.02994902
8736.00   1.02965021   0.02998106
8738.00   1.03070831   0.03004909
8740.00   1.02699625   0.03008165
8742.00   1.03157175   0.03019869
8744.00   1.04741395   0.03040604
8746.00   1.04819214   0.03043146
8748.00   1.03006303   0.03014545
8750.00   1.03656042   0.03024056
8752.00   1.04072559   0.03148693
8754.00   1.02224541   0.03475930
8756.00   1.07179105   0.04140761
8758.00   1.05309260   0.04686359
8760.00   1.01253259   0.05070672
8762.00   0.97373599   0.05423644
8764.00   0.95428532   0.05822134
8766.00   1.03650701   0.05815892
8768.00   1.01359284   0.05471078
8770.00   1.00132263   0.05225727
8772.00   1.03758061   0.05241464
8774.00   1.06189001   0.05307307
8776.00   1.00215662   0.05261812
8778.00   0.98332566   0.05218384
8780.00   0.99996471   0.05097544
8782.00   1.02180755   0.04772402
8784.00   1.02021658   0.04087883
8786.00   1.03895760   0.03716908
8788.00   1.03533208   0.03687551
8790.00   1.01646006   0.03780882
8792.00   1.00112665   0.03792119
8794.00   1.00176144   0.03749987
8796.00   1.00851703   0.03523425
8798.00   1.01999950   0.03232582
8800.00   1.02947605   0.03017814
8802.00   1.03363192   0.02982581
8804.00   1.04532385   0.03048699
8806.00   1.05437386   0.03076697
8808.00   1.05137193   0.03093847
8810.00   1.04101467   0.03099706
8812.00   1.03293848   0.03082626
8814.00   1.01031947   0.03065685
8816.00   1.00088835   0.03021984
8818.00   1.01532686   0.03136399
8820.00   1.03384244   0.03743383
8822.00   1.01848555   0.04930487
8824.00   1.01233900   0.05987979
8826.00   1.02163947   0.06476057
8828.00   1.04043210   0.06638569
8830.00   1.05276966   0.06593900
8832.00   1.03632700   0.06207090
8834.00   1.01326215   0.05510760
8836.00   1.00935733   0.04948137
8838.00   1.00797904   0.04651218
8840.00   0.99634761   0.04473748
8842.00   0.99984050   0.03978272
8844.00   1.01116884   0.03583490
8846.00   1.01592934   0.03539758
8848.00   1.01407623   0.03686354
8850.00   1.01360929   0.03732786
8852.00   1.02408063   0.03723921
8854.00   1.03864825   0.03616931
8856.00   1.02847040   0.03385142
8858.00   1.00310457   0.03171469
8860.00   0.99375981   0.03227373
8862.00   0.99442023   0.03588853
8864.00   0.99807566   0.04007135
8866.00   1.00188816   0.04253983
8868.00   1.00626826   0.04293808
8870.00   1.01326776   0.04226956
8872.00   1.00921559   0.03948640
8874.00   1.00316668   0.03479394
8876.00   1.00717151   0.03115965
8878.00   1.01808214   0.03244244
8880.00   1.01063716   0.03954569
8882.00   1.00175297   0.05019341
8884.00   0.96406823   0.05514176
8886.00   0.93389124   0.05619301
8888.00   0.94279784   0.05565249
8890.00   0.96783423   0.05276215
8892.00   0.94705707   0.04309015
8894.00   0.93849903   0.03422431
8896.00   0.95953482   0.03204717
8898.00   0.99132353   0.03638975
8900.00   0.95991212   0.04146517
8902.00   0.95934755   0.04390893
8904.00   0.96852344   0.04463330
8906.00   0.96207255   0.04357539
8908.00   0.93109602   0.04015456
8910.00   0.96559763   0.03465945
8912.00   0.95115829   0.03390985
8914.00   0.92610359   0.04175640
8916.00   0.91544580   0.05256670
8918.00   0.91033727   0.05925385
8920.00   0.95398539   0.06117618
8922.00   0.95062017   0.05995186
8924.00   0.92863148   0.05429246
8926.00   0.92785293   0.04412015
8928.00   0.95806104   0.03444630
8930.00   0.95997524   0.03063862
8932.00   0.95625335   0.02996893
8934.00   0.95896965   0.03032278
8936.00   0.96920782   0.03137411
8938.00   0.96757221   0.03544885
8940.00   0.97278595   0.03979200
8942.00   0.96492416   0.04186426
8944.00   0.94830680   0.04209708
8946.00   0.93652672   0.04160665
8948.00   0.92522025   0.03864504
8950.00   0.93234962   0.03545390
8952.00   0.93986875   0.03847642
8954.00   0.93978888   0.04673437
8956.00   0.93679118   0.05444883
8958.00   0.95089364   0.05597662
8960.00   0.95841712   0.05562266
8962.00   0.95348972   0.05173328
8964.00   0.94526511   0.04380105
8966.00   0.95385075   0.03437851
8968.00   0.94864750   0.03027757
8970.00   0.93947601   0.02964145
8972.00   0.93806982   0.03016997
8974.00   0.94691181   0.03029640
8976.00   0.95183498   0.03017882
8978.00   0.94842952   0.03015351
8980.00   0.94075656   0.03054850
8982.00   0.94808513   0.03260403
8984.00   0.97278571   0.03646090
8986.00   0.95892721   0.04000254
8988.00   0.94001120   0.04123754
8990.00   0.94097334   0.04152713
8992.00   0.95935529   0.04064242
8994.00   0.97710848   0.03855616
8996.00   0.98627949   0.03978281
8998.00   0.99132234   0.04509817
9000.00   0.99940759   0.04885546
9002.00   1.00776434   0.04989350
9004.00   1.00810707   0.04972548
9006.00   1.01789510   0.04622703
9008.00   1.01021814   0.03888292
9010.00   0.99794501   0.03216035
9012.00   0.99123973   0.02991175
9014.00   0.98793334   0.02986034
9016.00   0.96088529   0.02966263
9018.00   0.96895552   0.02980603
9020.00   0.97140509   0.02982716
9022.00   0.94697016   0.02961979
9024.00   0.95884889   0.03007703
9026.00   0.95477438   0.02988324
9028.00   0.95801240   0.02964372
9030.00   0.96406120   0.02980321
9032.00   0.96076608   0.03068439
9034.00   0.94418079   0.03253065
9036.00   0.92170018   0.03376262
9038.00   0.91803408   0.03427536
9040.00   0.93314576   0.03441782
9042.00   0.95061809   0.03478401
9044.00   0.95622134   0.03579685
9046.00   0.97283953   0.03751739
9048.00   0.97478771   0.03859641
9050.00   0.96253842   0.03894120
9052.00   0.96022898   0.03926416
9054.00   0.96121430   0.03714682
9056.00   0.95469791   0.03344795
9058.00   0.92948198   0.03092022
9060.00   0.96146423   0.03212475
9062.00   0.92505825   0.02915559
9064.00   0.90903354   0.03314450
9066.00   0.95174247   0.03006651
9068.00   0.90337163   0.02944587
9070.00   0.93115169   0.03014004
9072.00   0.93827516   0.02966492
9074.00   0.95374650   0.02950598
9076.00   0.94176346   0.02906670
9078.00   0.92414361   0.02880274
9080.00   0.93037796   0.02921165
9082.00   0.93612224   0.02960243
9084.00   0.92699313   0.02942808
9086.00   0.92038280   0.02989823
9088.00   0.92544717   0.03108270
9090.00   0.93825799   0.03221448
9092.00   0.92339253   0.03229669
9094.00   0.90447956   0.03246326
9096.00   0.89844131   0.03302091
9098.00   0.90602350   0.03384379
9100.00   0.91369462   0.03454559
9102.00   0.92653304   0.03511289
9104.00   0.92199969   0.03520825
9106.00   0.91423601   0.03429672
9108.00   0.91635895   0.03227529
9110.00   0.92869276   0.02977209
9112.00   0.92641878   0.02842661
9114.00   0.91942161   0.02804891
9116.00   0.89955974   0.02804882
9118.00   0.87139970   0.02795883
9120.00   0.87514371   0.02794824
9122.00   0.89510339   0.02816180
9124.00   0.89569086   0.02819933
9126.00   0.89017802   0.02812219
9128.00   0.90357608   0.02819932
9130.00   0.91895634   0.02864434
9132.00   0.92692804   0.02898760
9134.00   0.92082018   0.02911857
9136.00   0.90095872   0.02893624
9138.00   0.87725669   0.02844989
9140.00   0.88460320   0.02821577
9142.00   0.89642477   0.02809034
9144.00   0.90280539   0.02809253
9146.00   0.89643151   0.02840679
9148.00   0.87516612   0.02929044
9150.00   0.87610942   0.03035210
9152.00   0.85986686   0.03089509
9154.00   0.86662936   0.03168961
9156.00   0.90181810   0.03274217
9158.00   0.89875197   0.03271043
9160.00   0.91282821   0.03186368
9162.00   0.89090729   0.03098727
9164.00   0.87861162   0.03049678
9166.00   0.90764505   0.03022480
9168.00   0.90735292   0.02899581
9170.00   0.88739109   0.02822916
9172.00   0.88830870   0.02830566
9174.00   0.89975333   0.02866285
9176.00   0.89470583   0.02853061
9178.00   0.88430399   0.02818293
9180.00   0.87618351   0.02778557
9182.00   0.87985444   0.02776106
9184.00   0.89174700   0.02804439
9186.00   0.89984721   0.02821044
9188.00   0.88815325   0.02734817
9190.00   0.93959945   0.02916333
9192.00   0.89074206   0.02779745
9194.00   0.88683486   0.02785389
9196.00   0.90227497   0.02810700
9198.00   0.92193043   0.02834659
9200.00   0.97132260   0.03261787
9202.00   0.87514669   0.02853224
9204.00   0.89007521   0.02752705
9206.00   0.91743445   0.02865009
9208.00   0.94496584   0.02927481
9210.00   0.92559034   0.02935565
9212.00   0.89703864   0.02956915
9214.00   0.90517217   0.03045090
9216.00   0.93981695   0.03136996
9218.00   0.94454461   0.03235836
9220.00   0.96332747   0.03344435
9222.00   0.99003291   0.03395839
9224.00   0.99433756   0.03329748
9226.00   0.95309180   0.03216194
9228.00   0.94337004   0.03140022
9230.00   0.94341189   0.03057487
9232.00   0.93350679   0.02958422
9234.00   0.90765476   0.02873675
9236.00   0.90576071   0.02863967
9238.00   0.90066689   0.02840181
9240.00   0.89572817   0.02813387
9242.00   0.90025812   0.02819397
9244.00   0.92280155   0.02894589
9246.00   0.92847466   0.02967316
9248.00   0.91697031   0.02985787
9250.00   0.91265184   0.02965936
9252.00   0.92473584   0.02937475
9254.00   0.92578751   0.02917968
9256.00   0.91744304   0.02894960
9258.00   0.92009348   0.02892379
9260.00   0.93692809   0.02917425
9262.00   0.95654613   0.02950742
9264.00   0.94838375   0.02921490
9266.00   0.94541484   0.02914057
9268.00   0.93613005   0.02870358
9270.00   0.92598206   0.02818189
9272.00   0.92619592   0.02817163
9274.00   0.93415743   0.02842436
9276.00   0.92867702   0.02857904
9278.00   0.92692918   0.02895616
9280.00   0.92466021   0.02937179
9282.00   0.90530491   0.02941242
9284.00   0.91822273   0.03031791
9286.00   0.92076021   0.03089140
9288.00   0.92466873   0.03135812
9290.00   0.92974859   0.03171438
9292.00   0.91467136   0.03152578
9294.00   0.92557836   0.03136174
9296.00   0.93057829   0.03177671
9298.00   0.93075556   0.03331489
9300.00   0.93513280   0.03736388
9302.00   0.95420104   0.04591481
9304.00   0.92636871   0.05465198
9306.00   0.89750195   0.06372502
9308.00   0.88221520   0.07296158
9310.00   0.87894219   0.08065429
9312.00   0.87201619   0.08154999
9314.00   0.92161196   0.08018604
9316.00   0.95372730   0.07862058
9318.00   0.95120859   0.07675126
9320.00   0.93379474   0.07369649
9322.00   0.90319806   0.07263683
9324.00   0.91510457   0.07238823
9326.00   0.94276124   0.06974585
9328.00   0.95924610   0.06282866
9330.00   0.94865412   0.05167472
9332.00   0.90693456   0.04525403
9334.00   0.90483838   0.04640556
9336.00   0.92717147   0.04937499
9338.00   0.94615275   0.05037617
9340.00   0.94248819   0.05057654
9342.00   0.96558505   0.05133425
9344.00   0.97211069   0.04788202
9346.00   0.98182875   0.04185680
9348.00   0.99028540   0.03686656
9350.00   0.91026145   0.03558901
9352.00   0.83730292   0.03682273
9354.00   0.86273593   0.03864348
9356.00   0.92312485   0.03897812
9358.00   0.92586184   0.03695603
9360.00   0.91465706   0.03518381
9362.00   0.90597945   0.03420335
9364.00   0.89651775   0.03421402
9366.00   0.89727086   0.03737482
9368.00   0.91633087   0.04648603
9370.00   0.90244490   0.06495342
9372.00   0.86646348   0.08268914
9374.00   0.88519841   0.09293309
9376.00   0.96285588   0.09653473
9378.00   1.02226663   0.09780583
9380.00   0.91269237   0.09097099
9382.00   0.92511290   0.07445847
9384.00   0.97032118   0.05559510
9386.00   0.95568943   0.04419269
9388.00   0.89087206   0.04130344
9390.00   0.88963467   0.03865338
9392.00   0.91258842   0.03618525
9394.00   0.93063432   0.03475435
9396.00   0.92871338   0.03579056
9398.00   0.92014194   0.04012692
9400.00   0.89669824   0.04310501
9402.00   0.90635085   0.04422502
9404.00   0.91147542   0.04340911
9406.00   0.87148303   0.04097241
9408.00   0.86860561   0.03732234
9410.00   0.88650131   0.03404053
9412.00   0.89944953   0.03501521
9414.00   0.89706188   0.04001573
9416.00   0.88746959   0.04587370
9418.00   0.91257387   0.04989059
9420.00   0.91985893   0.05186525
9422.00   0.91286325   0.05232562
9424.00   0.89517981   0.05092894
9426.00   0.86694092   0.04647886
9428.00   0.85875964   0.04005345
9430.00   0.85512072   0.03632158
9432.00   0.86543566   0.03912504
9434.00   0.88573426   0.04962759
9436.00   0.88779241   0.06623455
9438.00   0.86573511   0.07976811
9440.00   0.86656618   0.08701543
9442.00   0.87030584   0.08623733
9444.00   0.85922319   0.07632044
9446.00   0.87213159   0.05577500
9448.00   0.88946980   0.04187682
9450.00   0.88105363   0.03670584
9452.00   0.86387616   0.04100905
9454.00   0.86875606   0.05021470
9456.00   0.88991380   0.05928939
9458.00   0.87879223   0.06298688
#9460.00   0.83616692   0.06435195
#9462.00   0.75793105   0.06120636
9464.00   0.86983800   0.04952272
#9466.00   0.76096028   0.03870343
9468.00   0.87096453   0.03584443
9470.00   0.91971350   0.04438977
9472.00   0.90865469   0.05846823
9474.00   0.90490121   0.07209433
9476.00   0.88260460   0.07814391
9478.00   0.83857054   0.08186526
9480.00   0.81425077   0.08042415
9482.00   0.83590931   0.07091414
9484.00   0.88934517   0.05114613
9486.00   0.90801066   0.03818323
9488.00   0.89097184   0.03271064
9490.00   0.86530036   0.03245614
9492.00   0.86133939   0.03336424
9494.00   0.89064914   0.03601955
9496.00   0.89615077   0.04226055
9498.00   0.87676901   0.05113234
9500.00   0.86328012   0.05812346
9502.00   0.88266331   0.05966669
9504.00   0.88038015   0.05561059
9506.00   0.86530876   0.05075310
9508.00   0.88002557   0.04468927
9510.00   0.90469694   0.03891267
9512.00   0.88644177   0.03797913
9514.00   0.89877677   0.04814466
9516.00   0.91412264   0.06117670
9518.00   0.89279562   0.06983776
9520.00   0.84090048   0.07276674
9522.00   0.81697339   0.07180367
9524.00   0.86681676   0.06453128
9526.00   0.89382249   0.05176864
9528.00   0.90442532   0.03973668
9530.00   0.91658568   0.03605193
9532.00   0.92247796   0.03704415
9534.00   0.96110791   0.03829783
9536.00   0.99144512   0.03929602
9538.00   1.00682449   0.03949660
9540.00   1.00095367   0.03872051
9542.00   0.92833972   0.03693180
9544.00   0.87858462   0.03620149
9546.00   0.89399058   0.03892558
9548.00   0.93114668   0.04373102
9550.00   0.91544122   0.04787545
9552.00   0.84589034   0.04954647
9554.00   0.86922169   0.05138984
9556.00   0.91578978   0.05102239
9558.00   0.94690377   0.04807211
9560.00   0.96332055   0.04495616
9562.00   0.93742824   0.05000223
9564.00   0.88108760   0.06008313
9566.00   0.88297796   0.06679248
9568.00   0.93646669   0.06718092
9570.00   0.91482562   0.06242970
9572.00   0.87403250   0.05478520
9574.00   0.87515253   0.04497541
9576.00   0.90326929   0.03671136
9578.00   0.92043346   0.03364222
9580.00   0.88867277   0.03289971
9582.00   0.88152379   0.03207162
9584.00   0.88551241   0.03176831
9586.00   0.89127141   0.03211581
9588.00   0.89174551   0.03293745
9590.00   0.88524276   0.03368394
9592.00   0.90073323   0.03395010
9594.00   0.91363287   0.03359881
9596.00   0.91232896   0.03288836
9598.00   0.89968425   0.03242185
9600.00   0.89945054   0.03297991
9602.00   0.91828376   0.03586400
9604.00   0.92190844   0.03985571
9606.00   0.90974140   0.04291956
9608.00   0.91054839   0.04326589
9610.00   0.90869856   0.04261984
9612.00   0.90838701   0.04152175
9614.00   0.91706961   0.04117459
9616.00   0.93447328   0.04274170
9618.00   0.94924110   0.04670988
9620.00   0.90283269   0.04848239
9622.00   0.86703014   0.04886705
9624.00   0.87755162   0.04789334
9626.00   0.92166942   0.04516216
9628.00   0.91615891   0.03923699
9630.00   0.90616447   0.03529399
9632.00   0.88667983   0.03342940
9634.00   0.87368298   0.03299911
9636.00   0.88269335   0.03293640
9638.00   0.90909582   0.03310606
9640.00   0.89542300   0.03267124
9642.00   0.90131491   0.03270961
9644.00   0.92488694   0.03312949
9646.00   0.92874688   0.03323495
9648.00   0.91231823   0.03332359
9650.00   0.92383367   0.03425184
9652.00   0.93287820   0.03497767
9654.00   0.92945200   0.03535149
9656.00   0.92887455   0.03607623
9658.00   0.92201924   0.03675044
9660.00   0.90341878   0.03724835
9662.00   0.87949115   0.03887810
9664.00   0.87407035   0.04193177
9666.00   0.92610902   0.04525705
9668.00   0.91068888   0.04615182
9670.00   0.89368480   0.04603675
9672.00   0.88036871   0.04518101
9674.00   0.87652487   0.04448659
9676.00   0.92749041   0.04653146
9678.00   0.94225121   0.05069819
9680.00   0.93339586   0.05292914
9682.00   0.90270215   0.05270819
9684.00   0.86931342   0.05110526
9686.00   0.92425650   0.04989049
9688.00   0.90226460   0.04612305
9690.00   0.89119869   0.04296853
9692.00   0.89633632   0.04298934
9694.00   0.87677461   0.04657492
9696.00   0.89877874   0.05114806
9698.00   0.88835239   0.05332494
9700.00   0.88832766   0.05385889
9702.00   0.89541960   0.05269256
9704.00   0.85882252   0.04883574
9706.00   0.85751295   0.04405703
9708.00   0.86824894   0.04233299
9710.00   0.88354999   0.04328239
9712.00   0.89582419   0.04590154
9714.00   0.89604568   0.05037265
9716.00   0.87188387   0.05513539
9718.00   0.84189111   0.05720766
9720.00   0.83397943   0.05731076
9722.00   0.85780996   0.05647773
9724.00   0.87813300   0.05419859
9726.00   0.89830858   0.04752846
9728.00   0.88950723   0.04129761
9730.00   0.87013364   0.03912275
9732.00   0.87216383   0.04161880
9734.00   0.89098930   0.04540266
9736.00   0.90026921   0.04791093
9738.00   0.89574867   0.04868413
9740.00   0.87705892   0.04817375
9742.00   0.85059291   0.04722734
9744.00   0.84730792   0.04495638
9746.00   0.84668094   0.04231440
9748.00   0.84450191   0.04026367
9750.00   0.84248191   0.03890349
9752.00   0.84660816   0.03725237
9754.00   0.85526985   0.03567300
9756.00   0.89861757   0.03651996
9758.00   0.94428873   0.03753648
9760.00   0.95022464   0.03672704
9762.00   0.88507086   0.03398431
9764.00   0.86184996   0.03343664
9766.00   0.85645801   0.03348204
9768.00   0.85277051   0.03342201
9770.00   0.84626037   0.03316429
9772.00   0.86288232   0.03340922
9774.00   0.85310203   0.03363748
9776.00   0.84591335   0.03410479
9778.00   0.85611171   0.03494585
9780.00   0.88123894   0.03654868
9782.00   0.88598269   0.03978252
9784.00   0.87879330   0.04830071
9786.00   0.87133884   0.06125921
9788.00   0.85397023   0.07382843
9790.00   0.81309050   0.08171489
9792.00   0.82805115   0.08420102
9794.00   0.85899687   0.08453592
9796.00   0.84737444   0.08003526
9798.00   0.81040812   0.07071438
9800.00   0.84345102   0.06172500
9802.00   0.85527140   0.05848541
9804.00   0.86955094   0.05534348
9806.00   0.87233353   0.05135061
9808.00   0.85815746   0.04768807
9810.00   0.84639305   0.04708871
9812.00   0.87302905   0.04811536
9814.00   0.85599607   0.04824881
9816.00   0.82151914   0.04672809
9818.00   0.82176787   0.04410078
9820.00   0.87207526   0.04248852
9822.00   0.86715883   0.04110873
9824.00   0.83555102   0.03994628
9826.00   0.80852222   0.03928873
9828.00   0.80765653   0.03935304
9830.00   0.81075710   0.03935299
9832.00   0.82028168   0.03883180
9834.00   0.82743901   0.03799652
9836.00   0.83337116   0.03726678
9838.00   0.84457415   0.03715567
9840.00   0.84045982   0.03779222
9842.00   0.82074022   0.04094182
9844.00   0.79421359   0.04592255
9846.00   0.77595502   0.05073441
9848.00   0.78202754   0.05308479
9850.00   0.77225190   0.05279776
9852.00   0.74291897   0.05027595
9854.00   0.75594491   0.04617500
9856.00   0.82607919   0.04174986
9858.00   0.85557961   0.03915088
9860.00   0.83872193   0.03820179
9862.00   0.80474496   0.03854005
9864.00   0.77948380   0.04247880
9866.00   0.77652997   0.05163578
9868.00   0.78596550   0.06577647
9870.00   0.75190371   0.07470470
9872.00   0.77305627   0.07916718
9874.00   0.81883979   0.07904586
9876.00   0.80746645   0.07390591
9878.00   0.79733270   0.06218318
9880.00   0.79064280   0.05078524
9882.00   0.80262870   0.04375844
9884.00   0.82283455   0.04239453
9886.00   0.81807584   0.04334277
9888.00   0.74326414   0.04572174
9890.00   0.71924829   0.05223733
9892.00   0.76219845   0.05908298
9894.00   0.83023340   0.06324003
9896.00   0.83965939   0.06310683
9898.00   0.81418115   0.06108372
9900.00   0.78360534   0.05554671
9902.00   0.76675719   0.04851380
9904.00   0.77068633   0.04384102
9906.00   0.79033142   0.04477701
9908.00   0.78800535   0.05398614
9910.00   0.75320339   0.06699380
9912.00   0.70523387   0.07800782
9914.00   0.67775273   0.08379712
9916.00   0.70523977   0.08432651
9918.00   0.72320753   0.08027474
9920.00   0.72153598   0.07055179
9922.00   0.70345306   0.05728188
9924.00   0.68481320   0.04643817
9926.00   0.69527125   0.04277558
9928.00   0.75115114   0.04217165
9930.00   0.79256469   0.04280999
9932.00   0.77741259   0.04434669
9934.00   0.71489143   0.04899794
#9936.00   0.86495990   0.05463262
9938.00   0.72735107   0.06780724
9940.00   0.72667897   0.08291184
9942.00   0.70923299   0.09639180
9944.00   0.76281577   0.10867717
9946.00   0.79135484   0.11153946
9948.00   0.78693151   0.10865545
9950.00   0.76550531   0.10329080
9952.00   0.75610352   0.09873984
9954.00   0.78406090   0.09635348
9956.00   0.77658820   0.09806588
9958.00   0.73953182   0.10185208
9960.00   0.71600485   0.10347836
9962.00   0.73968726   0.09951210
9964.00   0.75228977   0.09048017
9966.00   0.77076364   0.08331689
9968.00   0.79235631   0.07765431
9970.00   0.81530541   0.07195356
9972.00   0.82780790   0.06503584
9974.00   0.73918289   0.06333712
9976.00   0.76588511   0.06223420
9978.00   0.80234265   0.05962725
9980.00   0.79887861   0.05557947
9982.00   0.79747486   0.05234814
9984.00   0.78667086   0.04922787
9986.00   0.76942396   0.04708451
9988.00   0.77714872   0.04623717
9990.00   0.80497599   0.04654795
9992.00   0.79004240   0.04750979
9994.00   0.79643792   0.05085816
#9996.00   0.77240801   0.05476506
#9998.00   0.71402830   0.05817300
#10000.00   0.62913436   0.06161824
10002.00   0.81582648   0.06809092
10004.00   0.83237100   0.06876939
10006.00   0.81308365   0.07747962
10008.00   0.85773975   0.09431419
10010.00   0.77341324   0.11189655
10012.00   0.76112479   0.12138464
10014.00   0.83121490   0.12402263
10016.00   0.81152612   0.11944582
10018.00   0.73874706   0.10840663
10020.00   0.76972610   0.09375801
10022.00   0.78777432   0.08622298
10024.00   0.81697750   0.08432438
10026.00   0.80122930   0.08348510
10028.00   0.75305337   0.08050142
10030.00   0.75882739   0.07488782
10032.00   0.81813926   0.06637485
10034.00   0.85061377   0.05990185
10036.00   0.85593915   0.05772893
10038.00   0.85138941   0.05968869
10040.00   0.85102528   0.06348103
10042.00   0.83241934   0.06547941
10044.00   0.84044307   0.06612372
10046.00   0.84603024   0.06510412
10048.00   0.82022309   0.06228976
10050.00   0.79706603   0.05803333
10052.00   0.78238416   0.05661802
10054.00   0.76455086   0.06045825
10056.00   0.74718070   0.06797551
10058.00   0.74398679   0.07572822
10060.00   0.77792841   0.08046305
10062.00   0.80698186   0.08331802
10064.00   0.81497067   0.08362152
10066.00   0.81051588   0.08145206
10068.00   0.81849450   0.07780761
10070.00   0.85122937   0.07582924
10072.00   0.86369795   0.07478466
10074.00   0.86775404   0.07641118
10076.00   0.85713249   0.08260272
10078.00   0.80438995   0.09395856
10080.00   0.81121463   0.10570756
10082.00   0.86278397   0.11199284
10084.00   0.89719194   0.11238622
10086.00   0.88010043   0.10678967
10088.00   0.84607345   0.09360936
10090.00   0.82457447   0.07793093
10092.00   0.84947747   0.06783716
10094.00   0.86007994   0.06534003
10096.00   0.81813687   0.06792902
10098.00   0.83882147   0.07575214
10100.00   0.86545104   0.08511467
10102.00   0.88103861   0.09106389
10104.00   0.88717723   0.09292441
10106.00   0.89551228   0.09165460
10108.00   0.90908027   0.08676156
10110.00   0.89248228   0.07802051
10112.00   0.87174052   0.07050297
10114.00   0.86780447   0.06938276
10116.00   0.88791823   0.07701131
10118.00   0.91978794   0.09464260
10120.00   0.91777945   0.11538906
10122.00   0.87294799   0.13004459
10124.00   0.82310629   0.13612267
10126.00   0.84340030   0.13584740
10128.00   0.86153358   0.12762095
10130.00   0.83870012   0.11087780
10132.00   0.81721193   0.09227800
10134.00   0.82535726   0.08067321
10136.00   0.82009459   0.07789203
10138.00   0.89716768   0.07825490
10140.00   0.93374306   0.08014339
10142.00   0.92116833   0.08303862
10144.00   0.88660240   0.08724982
10146.00   0.80992293   0.09288631
10148.00   0.82876724   0.10243324
10150.00   0.90769678   0.11197960
10152.00   0.94692135   0.11859316
10154.00   0.86225605   0.12081536
10156.00   0.77492666   0.12019243
10158.00   0.82344222   0.11677016
10160.00   0.90156239   0.11218589
10162.00   0.91203982   0.10970673
10164.00   0.81948262   0.11374268
10166.00   0.80470365   0.13044392
10168.00   0.86553627   0.15153028
10170.00   0.89757746   0.16662295
10172.00   0.87957293   0.17226000
10174.00   0.91891450   0.17090996
10176.00   0.91627711   0.16194250
10178.00   0.92318755   0.14472766
10180.00   0.90987897   0.12777482
10182.00   0.87611574   0.12240020
10184.00   0.92208189   0.13236083
10186.00   0.90227795   0.14363490
10188.00   0.88362032   0.15079246
10190.00   0.88488990   0.15288946
10192.00   0.89214045   0.15047957
10194.00   0.84425229   0.14199944
10196.00   0.84504175   0.12924983
10198.00   0.82597011   0.12206099
10200.00   0.84163284   0.12507050
10202.00   0.95763904   0.13579017
10204.00   0.87998152   0.15022314
10206.00   0.85994285   0.16856770
10208.00   0.86884713   0.18198417
10210.00   0.87279624   0.18674459
10212.00   0.85576218   0.18330242
10214.00   0.76914185   0.17293771
10216.00   0.75241333   0.15445046
10218.00   0.73550755   0.13618329
10220.00   0.73346931   0.12950055
10222.00   0.91626185   0.14064415
10224.00   0.90969825   0.15305118
10226.00   0.85773367   0.16277784
10228.00   0.82747793   0.16746329
10230.00   0.83680868   0.16527151
10232.00   0.83377212   0.15267605
10234.00   0.85852557   0.13851701
10236.00   0.90050393   0.12450137
10238.00   0.92055672   0.11224630
10240.00   0.88921404   0.10293576
10242.00   0.84213334   0.09841496
10244.00   0.84648210   0.09713870
10246.00   0.86497146   0.09731118
10248.00   0.86005896   0.09738446
10250.00   0.82204300   0.09691941
10252.00   0.87714028   0.09894663
10254.00   0.85969645   0.09988930
10256.00   0.84944206   0.10092059
10258.00   0.88602710   0.10302362
10260.00   0.93120003   0.10617825
10262.00   0.82559937   0.10726833
10264.00   0.73984265   0.11035350
10266.00   0.68711853   0.11653011
10268.00   0.67999482   0.12469181
10270.00   0.77040416   0.13223076
10272.00   0.77545851   0.13518424
10274.00   0.73307991   0.13548104
10276.00   0.71099806   0.13933706
10278.00   0.74253851   0.15708913
10280.00   0.75417352   0.19832973
10282.00   0.79695398   0.25431243
10284.00   0.71598387   0.29634497
10286.00   0.60084552   0.31955931
10288.00   0.60663462   0.32569981
10290.00   0.70077515   0.31964365
10292.00   0.62261969   0.29410568
10294.00   0.53746074   0.26074448
10296.00   0.58752126   0.23395748
10298.00   0.81456059   0.22434963
10300.00   0.92401344   0.21058981
10302.00   0.92912084   0.19145890
10304.00   0.88957042   0.17575140
10306.00   0.85528064   0.17004728
10308.00   0.84646076   0.17233682
10310.00   0.86064523   0.17144187
10312.00   0.85268849   0.16808672
10314.00   0.82098776   0.16108619
10316.00   0.79796177   0.15137525
10318.00   0.84704763   0.14367025
10320.00   0.89897442   0.14290097
10322.00   0.84335917   0.14453517
10324.00   0.76977235   0.14738500
10326.00   0.77901268   0.15096720
10328.00   0.83005923   0.15425712
10330.00   0.77727014   0.15259242
10332.00   0.71291089   0.15140277
10334.00   0.73925036   0.15477858
10336.00   0.86438888   0.16315667
10338.00   0.72445637   0.16781390
10340.00   0.64542395   0.18268470
10342.00   0.59698278   0.20391107
10344.00   0.61726999   0.22489567
10346.00   0.74077433   0.23966300
10348.00   0.50861311   0.24534160
10350.00   0.66401905   0.25056824
10352.00   0.81181413   0.24404378
10354.00   0.78500110   0.22562192
10356.00   0.83689767   0.21211474
10358.00   0.81674081   0.20245297
10360.00   0.83062094   0.19402437
10362.00   0.83361703   0.19330674
10364.00   0.80074102   0.20972161
10366.00   0.79130775   0.24848323
10368.00   1.17880082   0.31038949
10370.00   1.16133451   0.36191979
10372.00   0.96837837   0.38951123
10374.00   1.07183909   0.38980928
10376.00   0.61293787   0.37422657
10378.00   0.72675556   0.34200084
10380.00   0.82119417   0.27911517
10382.00   0.84612447   0.23455431
10384.00   0.85999107   0.21945477
10386.00   0.77057046   0.21211188
10388.00   0.75123030   0.21806721
10390.00   0.81189996   0.24138437
10392.00   0.85234356   0.28065521
10394.00   0.76439697   0.30433676
10396.00   1.03117323   0.31240278
10398.00   0.98754996   0.31100607
10400.00   0.84048724   0.29618844
10402.00   0.74064988   0.27163723
10404.00   0.61584109   0.23928533
10406.00   0.75832254   0.23122083
10408.00   0.88445234   0.23548049
10410.00   0.65279859   0.26811722
10412.00   0.64662409   0.32041067
10414.00   0.67897671   0.38687336
10416.00   1.18695593   0.42335773
10418.00   1.10792291   0.44881269
10420.00   1.22658634   0.44959906
10422.00   1.16114473   0.42567560
10424.00   1.06456399   0.38055277
10426.00   0.78603458   0.30485690
10428.00   0.47056013   0.26225936
10430.00   0.95605457   0.24517192
10432.00   0.65049094   0.23568195
10434.00   0.57669979   0.22460617
10436.00   0.65072954   0.22335839
10438.00   0.74613905   0.22596240
10440.00   0.77554160   0.22848301
10442.00   0.73138469   0.23272133
10444.00   0.73381883   0.26550382
10446.00   0.64773929   0.29403943
10448.00   0.70666760   0.31209341
10450.00   1.07540727   0.32695678
10452.00   0.95639783   0.33389664
10454.00   0.43002406   0.31063688
10456.00   0.52126360   0.29041049
10458.00   0.78199703   0.27509046
10460.00   0.92470759   0.27817431
10462.00   0.71108443   0.32371610
10464.00   0.54739094   0.38094527
10466.00   0.60980994   0.43309531
10468.00   0.88036925   0.46438581
10470.00   1.10432899   0.46039286
10472.00   0.94583541   0.44576517
10474.00   0.82217872   0.40200111
10476.00   0.82050079   0.34754935
10478.00   0.90270537   0.30147803
10480.00   0.67730600   0.27910009
10482.00   0.95498031   0.27495995
10484.00   0.85133553   0.27926385
10486.00   0.83715838   0.28266850
10488.00   0.78169399   0.28317189
10490.00   0.89286023   0.28626326
10492.00   0.80592275   0.28356710
10494.00   0.79109424   0.28593862
10496.00   0.87682581   0.28963649
10498.00   0.94051051   0.29143023
10500.00   0.73733425   0.29269955
10502.00   0.78776383   0.31561527
10504.00   0.98429370   0.35479677
10506.00   0.93353230   0.35906807
10508.00   1.42703521   0.37632087
10510.00   1.14726520   0.39778224
10512.00   1.23708737   0.39023975
10514.00   0.74894524   0.36721683
10516.00   0.63425040   0.35087606
10518.00   1.12620866   0.37230289
10520.00   1.60421789   0.40662801
10522.00   0.81973773   0.41866368
10524.00   0.52036995   0.43533248
10526.00   0.60662657   0.44651437
10528.00   0.89689595   0.43362930
10530.00   0.64862567   0.38791800
10532.00   0.81186527   0.34853187
10534.00   0.93508333   0.32169506
10536.00   0.83352232   0.30685291
10538.00   0.73354274   0.29980671
10540.00   0.64986694   0.29688105
10542.00   0.79609996   0.29063189
10544.00   0.95165044   0.28997749
10546.00   0.93216449   0.29021800
10548.00   0.50059056   0.29891229
10550.00   0.93407631   0.29866692
10552.00   0.51764995   0.29828864
10554.00   0.32161358   0.28252620
10556.00   0.38803032   0.28384742
10558.00   0.65280408   0.29248893
10560.00   0.64563680   0.29563227
10562.00   0.63382262   0.30326748
10564.00   0.66759896   0.28166473
10566.00   0.70784229   0.30394006
10568.00   0.78933078   0.30679625
10570.00   0.69061184   0.30824202
10572.00   0.67054325   0.30842638
10574.00   0.98068887   0.33949780
10576.00   0.56958812   0.33491123
10578.00   0.48346925   0.31920663
10580.00   0.53479367   0.31750828
10582.00   0.28955999   0.32721183
10584.00   0.50480807   0.33689052
10586.00   1.06562507   0.37358993
10588.00   0.77744162   0.37272421
10590.00   0.62672824   0.36096135
10592.00   0.66108066   0.33810908
10594.00   0.86936045   0.33055696
10596.00   0.85043591   0.32909936
10598.00   0.98576391   0.32931519
10600.00   0.50110710   0.32928669
10602.00   0.69278383   0.32950360
10604.00   0.50092810   0.31928918
10606.00   0.84012222   0.32473308
10608.00   0.63188684   0.32453284
10610.00   0.41781640   0.32134387
10612.00   0.65412623   0.31138289
10614.00   0.76859426   0.33101526
10616.00   0.63302052   0.34377438
10618.00   0.48083657   0.35091913
10620.00   0.71337605   0.34590492
10622.00   0.85883027   0.35790724
10624.00   0.69019008   0.34897169
10626.00   0.92421579   0.36740932
10628.00   1.01829922   0.38643473
10630.00   0.99892378   0.39414614
10632.00   0.84858209   0.39038143
10634.00   1.00816202   0.38940719
10636.00   0.32011706   0.41313997
10638.00   1.02902532   0.42715487
10640.00   0.82082438   0.44086638
10642.00   0.83768195   0.45096096
10644.00   0.53039217   0.44168177
10646.00   0.64053845   0.45248255
10648.00   0.95351219   0.47490191
10650.00   0.94260949   0.49150094
10652.00   0.56778783   0.49413881
#10654.00   -0.13063236   0.50415468
10656.00   0.81894064   0.50893968
10658.00   0.77665687   0.49782953
10660.00   0.57509321   0.48142818
10662.00   0.60773355   0.47894081
10664.00   1.26344323   0.50972927
10666.00   1.00319111   0.50502199
10668.00   1.00920558   0.49330476
10670.00   0.33310145   0.48835030
10672.00   1.06148434   0.50102121
10674.00   0.97060907   0.50105995
10676.00   0.38072190   0.48405465
10678.00   1.25451803   0.50117463
#10680.00   1.82184505   0.54844964
