# File created by shivutils (I.Shivvers)
# wl(A)   flm    er(optional)
3440.00   0.09436412   0.04217647
3442.00   0.04513984   0.04389986
3444.00   0.08429885   0.04361091
3446.00   0.06939089   0.04531305
3448.00   0.17415750   0.04822942
3450.00   0.04543703   0.04959072
3452.00   0.13193208   0.04977692
3454.00   0.01330221   0.05145894
3456.00   0.17338933   0.05015402
3458.00   0.15493688   0.05019271
3460.00   0.22896458   0.05099858
3462.00   0.15591958   0.04915308
3464.00   0.10431876   0.04873293
3466.00   0.12399981   0.04875973
3468.00   0.14933507   0.05029408
3470.00   0.15927519   0.04786438
3472.00   0.19536552   0.04907821
3474.00   0.12154382   0.04809102
3476.00   0.23450662   0.04997104
3478.00   0.23187390   0.05232391
3480.00   0.12363771   0.05242152
3482.00   0.20166023   0.05504574
3484.00   0.20032293   0.05347403
3486.00   0.20276231   0.05341732
3488.00   0.18752280   0.05167204
3490.00   0.30382150   0.05150691
3492.00   0.19237751   0.04912920
3494.00   0.31398842   0.05142924
3496.00   0.26267877   0.04973034
3498.00   0.23431191   0.04908429
3500.00   0.21262607   0.04663971
3502.00   0.29347706   0.04809316
3504.00   0.17812777   0.04632537
3506.00   0.19577214   0.04675284
3508.00   0.23105618   0.04809266
3510.00   0.09521122   0.04511028
3512.00   0.24929145   0.04664326
3514.00   0.19114640   0.04435777
3516.00   0.17832851   0.04597414
3518.00   0.29398885   0.04777929
3520.00   0.26907346   0.04703782
3522.00   0.26987723   0.04560202
3524.00   0.11768592   0.04157619
3526.00   0.14640760   0.04240021
3528.00   0.17601641   0.04185437
3530.00   0.18234462   0.04259352
3532.00   0.13054430   0.04157164
3534.00   0.16012409   0.04081908
3536.00   0.07994094   0.04023333
3538.00   0.14440989   0.04121831
3540.00   0.15959455   0.04348771
3542.00   0.14972723   0.04435391
3544.00   0.10664175   0.04445387
3546.00   0.09706920   0.04318209
3548.00   0.18271807   0.04312693
3550.00   0.11325521   0.04248106
3552.00   0.10156478   0.04255234
3554.00   0.04740813   0.04238006
3556.00   0.15917768   0.04372995
3558.00   0.10847281   0.04062653
3560.00   0.15647350   0.04196243
3562.00   0.12739652   0.04014320
3564.00   0.15074185   0.03971828
3566.00   0.16890210   0.04010916
3568.00   0.19655398   0.04010035
3570.00   0.08721637   0.03878502
3572.00   0.10715823   0.03818740
3574.00   0.14306989   0.03907169
3576.00   0.09855828   0.03747837
3578.00   0.14200400   0.03784653
3580.00   0.18296997   0.03773296
3582.00   0.07504905   0.03599057
3584.00   0.10703003   0.03434789
3586.00   0.06276585   0.03331619
3588.00   0.04454724   0.03286188
3590.00   0.07939808   0.03406223
3592.00   0.10677405   0.03405747
3594.00   0.14285049   0.03439770
3596.00   0.16719186   0.03393402
3598.00   0.15791044   0.03339811
3600.00   0.17078890   0.03321213
3602.00   0.06776112   0.03117359
3604.00   0.11784805   0.03124706
3606.00   0.11556373   0.03166926
3608.00   0.14232151   0.03168448
3610.00   0.15385844   0.03213888
3612.00   0.11903871   0.03180799
3614.00   0.17847818   0.03430204
3616.00   0.16589598   0.03420228
3618.00   0.12389094   0.03267590
3620.00   0.25564387   0.03438342
3622.00   0.09576889   0.03104853
3624.00   0.20955929   0.03268273
3626.00   0.16414165   0.03150886
3628.00   0.14398739   0.03159157
3630.00   0.18005402   0.03287813
3632.00   0.24712047   0.03362613
3634.00   0.26900446   0.03364959
3636.00   0.16309984   0.03142187
3638.00   0.21416929   0.03180923
3640.00   0.19475132   0.03169325
3642.00   0.18803598   0.03218341
3644.00   0.23509371   0.03360508
3646.00   0.12488724   0.03189312
3648.00   0.13420285   0.03801630
3650.00   0.17514357   0.04324833
3652.00   0.11651332   0.03820569
3654.00   0.12443784   0.03677838
3656.00   0.13621074   0.03364524
3658.00   0.11793872   0.02961935
3660.00   0.12053555   0.02938565
3662.00   0.12263318   0.03257198
3664.00   0.21615489   0.03282878
3666.00   0.15831715   0.02809958
3668.00   0.12165945   0.02582405
3670.00   0.11477079   0.02512166
3672.00   0.19485590   0.02675654
3674.00   0.14056368   0.02489327
3676.00   0.10973153   0.02436864
3678.00   0.23317441   0.02640959
3680.00   0.16227791   0.02518821
3682.00   0.14279880   0.02455215
3684.00   0.10331102   0.02416346
3686.00   0.11679813   0.02338049
3688.00   0.12477399   0.02397970
3690.00   0.13755003   0.02391546
3692.00   0.12388431   0.02368321
3694.00   0.12017756   0.02364845
3696.00   0.08458067   0.02300160
3698.00   0.12649243   0.02435009
3700.00   0.06573642   0.02341105
3702.00   0.13494661   0.02444415
3704.00   0.11790163   0.02360973
3706.00   0.06750428   0.02307873
3708.00   0.06017352   0.02307728
3710.00   0.13317195   0.02352987
3712.00   0.06442177   0.02204558
3714.00   0.11559420   0.02290258
3716.00   0.09866928   0.02178278
3718.00   0.11326873   0.02287154
3720.00   0.14820014   0.02296734
3722.00   0.14297883   0.02221821
3724.00   0.08738723   0.02175920
3726.00   0.15866251   0.02362130
3728.00   0.12912144   0.02253634
3730.00   0.14683884   0.02364254
3732.00   0.16575384   0.02452277
3734.00   0.16623360   0.02390344
3736.00   0.12763599   0.02349775
3738.00   0.16633415   0.02426610
3740.00   0.19664907   0.02718906
3742.00   0.37787533   0.03534253
3744.00   0.58182579   0.03929496
3746.00   0.62472254   0.03776125
3748.00   0.34808296   0.02805216
3750.00   0.20158519   0.02395152
3752.00   0.26565832   0.02491650
3754.00   0.25007316   0.02486348
3756.00   0.26597697   0.02512087
3758.00   0.32277888   0.02593393
3760.00   0.33094332   0.02581025
3762.00   0.33178297   0.02528084
3764.00   0.29482245   0.02483932
3766.00   0.34157273   0.02502894
3768.00   0.31630665   0.02440941
3770.00   0.36825225   0.02590893
3772.00   0.30776620   0.02527868
3774.00   0.31635395   0.02506927
3776.00   0.33074743   0.02522497
3778.00   0.30815563   0.02489089
3780.00   0.28298897   0.02403608
3782.00   0.19937514   0.02200305
3784.00   0.22464283   0.02224949
3786.00   0.25112817   0.02218784
3788.00   0.23528467   0.02233751
3790.00   0.20501353   0.02212985
3792.00   0.19749731   0.02237950
3794.00   0.25126719   0.02276218
3796.00   0.24427256   0.02274623
3798.00   0.17804909   0.02149888
3800.00   0.19241634   0.02199293
3802.00   0.18766974   0.02179831
3804.00   0.20713182   0.02182577
3806.00   0.16451700   0.02091583
3808.00   0.14103118   0.02044168
3810.00   0.18593457   0.02072148
3812.00   0.21586329   0.02146347
3814.00   0.24694343   0.02182428
3816.00   0.21588627   0.02117909
3818.00   0.19301277   0.02102048
3820.00   0.22880164   0.02178430
3822.00   0.23718812   0.02176516
3824.00   0.22112507   0.02124044
3826.00   0.21353047   0.02153066
3828.00   0.22831462   0.02236767
3830.00   0.23219141   0.02279097
3832.00   0.24603440   0.02275174
3834.00   0.21538125   0.02198534
3836.00   0.22951436   0.02242024
3838.00   0.24574335   0.02182099
3840.00   0.25763786   0.02192974
3842.00   0.22302754   0.02118735
3844.00   0.23533371   0.02106117
3846.00   0.16573413   0.01994020
3848.00   0.14854507   0.01883747
3850.00   0.12324744   0.01844755
3852.00   0.12563708   0.01875374
3854.00   0.11725738   0.01821350
3856.00   0.10809262   0.01753483
3858.00   0.11688467   0.01769604
3860.00   0.07087570   0.01712437
3862.00   0.12040780   0.01818799
3864.00   0.10592361   0.01805116
3866.00   0.09146318   0.01776994
3868.00   0.12904942   0.01830097
3870.00   0.08255907   0.01735522
3872.00   0.09219689   0.01754370
3874.00   0.08311052   0.01795208
3876.00   0.08229783   0.01724259
3878.00   0.10035058   0.01741447
3880.00   0.09079535   0.01722261
3882.00   0.07866674   0.01685695
3884.00   0.07441269   0.01704841
3886.00   0.08942903   0.01722905
3888.00   0.11328709   0.01759405
3890.00   0.07453880   0.01612891
3892.00   0.07838324   0.01643281
3894.00   0.10824089   0.01670059
3896.00   0.09207565   0.01632451
3898.00   0.10099913   0.01675053
3900.00   0.08329672   0.01628727
3902.00   0.08927809   0.01657122
3904.00   0.12637275   0.01744577
3906.00   0.13539238   0.01966416
3908.00   0.11364652   0.01963958
3910.00   0.12376904   0.01960521
3912.00   0.13815446   0.02012761
3914.00   0.10335162   0.01878805
3916.00   0.11502105   0.01805162
3918.00   0.10446323   0.01743496
3920.00   0.14503875   0.01778038
3922.00   0.13180293   0.01719655
3924.00   0.16436465   0.01792678
3926.00   0.19587860   0.01830995
3928.00   0.19132976   0.01835761
3930.00   0.15436111   0.01774932
3932.00   0.19673711   0.01896450
3934.00   0.19844784   0.01853875
3936.00   0.21912186   0.01857239
3938.00   0.20793189   0.01847055
3940.00   0.23054685   0.01917026
3942.00   0.29161042   0.02047366
3944.00   0.28056604   0.02017092
3946.00   0.32617772   0.02067810
3948.00   0.31424361   0.01988840
3950.00   0.35708946   0.01999037
3952.00   0.38012135   0.02057138
3954.00   0.42418820   0.02111826
3956.00   0.48038679   0.02191925
3958.00   0.50759619   0.02253052
3960.00   0.47709733   0.02256383
3962.00   0.54919702   0.02367637
3964.00   0.62112141   0.02372178
3966.00   0.62317455   0.02384816
3968.00   0.65407020   0.02398082
3970.00   0.68019092   0.02439707
3972.00   0.71824503   0.02468809
3974.00   0.81210566   0.02578400
3976.00   0.82167226   0.02584124
3978.00   0.77273536   0.02511859
3980.00   0.81507438   0.02568333
3982.00   0.87473959   0.02600701
3984.00   0.84144086   0.02557664
3986.00   0.90543330   0.02615828
3988.00   0.86213064   0.02565080
3990.00   0.84284693   0.02554969
3992.00   0.82565540   0.02527099
3994.00   0.80584943   0.02535119
3996.00   0.86313820   0.02638298
3998.00   0.83383965   0.02589342
4000.00   0.82184207   0.02562299
4002.00   0.80869645   0.02513789
4004.00   0.81285137   0.02527425
4006.00   0.77590531   0.02503225
4008.00   0.83924395   0.02581583
4010.00   0.82256258   0.02571489
4012.00   0.78447914   0.02533770
4014.00   0.77672368   0.02517586
4016.00   0.79747349   0.02513592
4018.00   0.77809596   0.02579540
4020.00   0.77466857   0.02662909
4022.00   0.82705432   0.02735011
4024.00   0.74511284   0.02626044
4026.00   0.73161685   0.02534125
4028.00   0.78226316   0.02527487
4030.00   0.75795043   0.02501619
4032.00   0.74925828   0.02499532
4034.00   0.76242214   0.02470610
4036.00   0.68882966   0.02404462
4038.00   0.66310978   0.02353438
4040.00   0.66579908   0.02323863
4042.00   0.59490895   0.02308037
4044.00   0.57211983   0.02778456
4046.00   0.55679905   0.03471875
4048.00   0.43867418   0.02955590
4050.00   0.44039828   0.02225860
4052.00   0.44945750   0.02151054
4054.00   0.43402630   0.02161170
4056.00   0.38113689   0.02064762
4058.00   0.39740899   0.02012552
4060.00   0.43451491   0.02025777
4062.00   0.44097975   0.02047233
4064.00   0.45885605   0.02074729
4066.00   0.51351923   0.02137113
4068.00   0.51446712   0.02135536
4070.00   0.58378321   0.02194175
4072.00   0.62604493   0.02231454
4074.00   0.70076483   0.02337059
4076.00   0.79994208   0.02559259
4078.00   0.94665837   0.02721521
4080.00   0.99971360   0.02689266
4082.00   0.96328670   0.02621627
4084.00   0.94722360   0.02597411
4086.00   0.94057429   0.02590186
4088.00   0.98294586   0.02590128
4090.00   0.92829674   0.02479478
4092.00   1.04249489   0.02576405
4094.00   1.06741226   0.02603733
4096.00   1.13628983   0.02640935
4098.00   1.19820261   0.02690605
4100.00   1.23990226   0.02734306
4102.00   1.29088044   0.02759689
4104.00   1.25404966   0.02713165
4106.00   1.30278599   0.02761895
4108.00   1.28780246   0.02755814
4110.00   1.30507898   0.02736179
4112.00   1.30844891   0.02738404
4114.00   1.35944223   0.02758584
4116.00   1.31650543   0.02722665
4118.00   1.33133042   0.02716916
4120.00   1.36176002   0.02773431
4122.00   1.25943172   0.02671532
4124.00   1.29009330   0.02696814
4126.00   1.28180599   0.02691417
4128.00   1.30813360   0.02708531
4130.00   1.28170896   0.02694991
4132.00   1.23442149   0.02698113
4134.00   1.18205917   0.02652716
4136.00   1.10345137   0.02564283
4138.00   1.10518801   0.02571954
4140.00   1.06053793   0.02545572
4142.00   1.03273070   0.02483002
4144.00   0.96597636   0.02406810
4146.00   0.96346647   0.02377020
4148.00   0.86674303   0.02294423
4150.00   0.84318537   0.02306915
4152.00   0.82315809   0.02321476
4154.00   0.76388752   0.02242721
4156.00   0.76263767   0.02224760
4158.00   0.78193247   0.02218208
4160.00   0.79044932   0.02236473
4162.00   0.75815386   0.02241975
4164.00   0.82056540   0.02357875
4166.00   0.79968220   0.02325116
4168.00   0.77635479   0.02234680
4170.00   0.83714926   0.02300487
4172.00   0.86375171   0.02292906
4174.00   0.86860031   0.02297346
4176.00   0.89439112   0.02299383
4178.00   0.82860488   0.02270625
4180.00   0.77590162   0.02192545
4182.00   0.70661306   0.02112877
4184.00   0.65200126   0.02059976
4186.00   0.59932858   0.02016356
4188.00   0.54277462   0.01957586
4190.00   0.53284550   0.01915620
4192.00   0.49837232   0.01872428
4194.00   0.47879577   0.01851452
4196.00   0.45513880   0.01818519
4198.00   0.47625825   0.01834784
4200.00   0.47144952   0.01828175
4202.00   0.49536273   0.01864355
4204.00   0.50109017   0.01857541
4206.00   0.51441532   0.01898223
4208.00   0.54626971   0.01926873
4210.00   0.55893159   0.01969588
4212.00   0.55874866   0.01940533
4214.00   0.56590503   0.01939171
4216.00   0.58287644   0.01948155
4218.00   0.58550245   0.01954780
4220.00   0.55729544   0.01935427
4222.00   0.59928745   0.01957024
4224.00   0.61187482   0.01972850
4226.00   0.63504589   0.02003612
4228.00   0.70406127   0.02056962
4230.00   0.74056649   0.02103271
4232.00   0.76545095   0.02136410
4234.00   0.81053638   0.02160106
4236.00   0.89861131   0.02253757
4238.00   0.88663977   0.02263325
4240.00   0.96894801   0.02302103
4242.00   1.00138450   0.02303201
4244.00   1.07194269   0.02392757
4246.00   1.13577294   0.02555568
4248.00   1.14338803   0.02524825
4250.00   1.11597550   0.02409473
4252.00   1.04400826   0.02340997
4254.00   1.00661814   0.02297677
4256.00   0.98241568   0.02290813
4258.00   0.84157455   0.02192012
4260.00   0.81594944   0.02131729
4262.00   0.75601166   0.02069920
4264.00   0.71434861   0.02034671
4266.00   0.63968891   0.01944369
4268.00   0.56117189   0.01860443
4270.00   0.56014955   0.01880546
4272.00   0.52581233   0.01835147
4274.00   0.46848431   0.01793935
4276.00   0.44768131   0.01775954
4278.00   0.39046553   0.01713958
4280.00   0.40937990   0.01718694
4282.00   0.39078856   0.01708979
4284.00   0.40166217   0.01707503
4286.00   0.39920646   0.01696272
4288.00   0.32524213   0.01617975
4290.00   0.32779273   0.01601840
4292.00   0.33695170   0.01611952
4294.00   0.36062929   0.01651018
4296.00   0.35610518   0.01645537
4298.00   0.31814635   0.01597416
4300.00   0.30845812   0.01590781
4302.00   0.33537123   0.01608454
4304.00   0.35860932   0.01640155
4306.00   0.37833455   0.01668641
4308.00   0.38334826   0.01665303
4310.00   0.38190299   0.01671559
4312.00   0.38183856   0.01761536
4314.00   0.46337435   0.01889328
4316.00   0.44373146   0.01804852
4318.00   0.48919937   0.01819140
4320.00   0.54927552   0.01918998
4322.00   0.54223728   0.01889130
4324.00   0.60775781   0.01941125
4326.00   0.64778465   0.01962668
4328.00   0.64408791   0.01927030
4330.00   0.69617271   0.01973047
4332.00   0.75072622   0.02016745
4334.00   0.75700635   0.02033738
4336.00   0.81250536   0.02096138
4338.00   0.83800936   0.02107958
4340.00   0.82313943   0.02109191
4342.00   0.83548027   0.02117721
4344.00   0.86013657   0.02139921
4346.00   0.84450042   0.02169326
4348.00   0.84475428   0.02177764
4350.00   0.80273426   0.02115667
4352.00   0.77845889   0.02065867
4354.00   0.73669732   0.02088635
4356.00   0.78312826   0.02985815
4358.00   0.72910792   0.03737338
4360.00   0.66834736   0.03040270
4362.00   0.66428268   0.02202236
4364.00   0.62097704   0.01999875
4366.00   0.64255059   0.01972163
4368.00   0.61643225   0.01948440
4370.00   0.60301280   0.01920178
4372.00   0.56052417   0.01911041
4374.00   0.55017638   0.01951309
4376.00   0.60934681   0.01960180
4378.00   0.59135085   0.01910694
4380.00   0.64950287   0.01942903
4382.00   0.69889635   0.01972799
4384.00   0.71741420   0.01976904
4386.00   0.71288776   0.01971390
4388.00   0.78065455   0.02028971
4390.00   0.77423275   0.02037146
4392.00   0.81486595   0.02059568
4394.00   0.81243169   0.02042862
4396.00   0.80557376   0.02048383
4398.00   0.79747885   0.02076357
4400.00   0.87160707   0.02147208
4402.00   0.90176612   0.02130756
4404.00   0.93757814   0.02136204
4406.00   0.94179374   0.02152090
4408.00   0.92975247   0.02149620
4410.00   0.94592869   0.02154084
4412.00   0.95561486   0.02151331
4414.00   0.93312073   0.02173995
4416.00   0.81996298   0.02102651
4418.00   0.84297496   0.02080814
4420.00   0.81454170   0.02059725
4422.00   0.86539364   0.02089118
4424.00   0.77807313   0.02029879
4426.00   0.80493081   0.02032398
4428.00   0.81287181   0.02042261
4430.00   0.80752742   0.02034144
4432.00   0.83612448   0.02057222
4434.00   0.84637320   0.02046697
4436.00   0.80021977   0.02009295
4438.00   0.80335528   0.02024814
4440.00   0.79108948   0.02009003
4442.00   0.79757184   0.02010408
4444.00   0.82162380   0.02030445
4446.00   0.79554832   0.02019332
4448.00   0.79949063   0.02017155
4450.00   0.86071110   0.02055308
4452.00   0.89865994   0.02065909
4454.00   0.93506527   0.02092887
4456.00   0.93987644   0.02104541
4458.00   1.03051484   0.02172503
4460.00   1.11823356   0.02225607
4462.00   1.12656653   0.02232013
4464.00   1.15283799   0.02260637
4466.00   1.16403186   0.02261391
4468.00   1.13368702   0.02237397
4470.00   1.09874868   0.02203831
4472.00   1.09116518   0.02205998
4474.00   0.97308201   0.02120614
4476.00   0.97013170   0.02115508
4478.00   0.94191098   0.02076491
4480.00   0.89377195   0.02051884
4482.00   0.90917253   0.02064666
4484.00   0.89493614   0.02077037
4486.00   0.87802184   0.02040710
4488.00   0.87650841   0.02044781
4490.00   0.86507559   0.02032896
4492.00   0.91867602   0.02082827
4494.00   0.87667161   0.02057546
4496.00   0.84908706   0.02017603
4498.00   0.78419799   0.01997663
4500.00   0.76708031   0.01967532
4502.00   0.73953837   0.01929759
4504.00   0.73815060   0.01927936
4506.00   0.70250303   0.01900360
4508.00   0.68745667   0.01873968
4510.00   0.70703822   0.01881281
4512.00   0.63133192   0.01827013
4514.00   0.63523096   0.01825212
4516.00   0.63404602   0.01798380
4518.00   0.59824634   0.01774715
4520.00   0.62730968   0.01797029
4522.00   0.56658542   0.01758728
4524.00   0.53766584   0.01737543
4526.00   0.49517995   0.01691506
4528.00   0.57486361   0.01758920
4530.00   0.58048320   0.01766111
4532.00   0.60525519   0.01780398
4534.00   0.54768169   0.01735679
4536.00   0.56818956   0.01745127
4538.00   0.56363845   0.01741965
4540.00   0.58547646   0.01763586
4542.00   0.62020826   0.01794721
4544.00   0.64051723   0.01819336
4546.00   0.64122862   0.01793935
4548.00   0.67092687   0.01820052
4550.00   0.66176325   0.01805991
4552.00   0.68876702   0.01828657
4554.00   0.72195911   0.01849653
4556.00   0.76166511   0.01886349
4558.00   0.80665523   0.01931706
4560.00   0.86137819   0.01957674
4562.00   0.87934679   0.01960134
4564.00   0.90109670   0.01991354
4566.00   0.92925650   0.02011741
4568.00   1.00389171   0.02059060
4570.00   1.11360574   0.02122841
4572.00   1.16143656   0.02172947
4574.00   1.16435444   0.02181228
4576.00   1.28321445   0.02245833
4578.00   1.47508335   0.02365393
4580.00   1.51965249   0.02396851
4582.00   1.63882589   0.02457491
4584.00   1.72541022   0.02511408
4586.00   1.86265004   0.02595937
4588.00   1.95979953   0.02650987
4590.00   2.07089901   0.02700336
4592.00   2.13030100   0.02728779
4594.00   2.17439270   0.02863250
4596.00   2.17031622   0.02854778
4598.00   2.14146614   0.02740564
4600.00   2.16724825   0.02738568
4602.00   2.09657288   0.02699750
4604.00   2.03567791   0.02664961
4606.00   1.95696402   0.02620721
4608.00   1.88301659   0.02573550
4610.00   1.79422343   0.02535912
4612.00   1.75210071   0.02500853
4614.00   1.65849864   0.02447329
4616.00   1.57297134   0.02387697
4618.00   1.59525478   0.02402538
4620.00   1.60459685   0.02406834
4622.00   1.63337469   0.02411104
4624.00   1.67342305   0.02432679
4626.00   1.75343573   0.02484223
4628.00   1.78127563   0.02510864
4630.00   1.83538532   0.02536155
4632.00   1.91055441   0.02588823
4634.00   1.93310499   0.02590919
4636.00   1.97461927   0.02612402
4638.00   1.95997036   0.02595957
4640.00   1.97907770   0.02606415
4642.00   1.95580173   0.02583449
4644.00   1.94076753   0.02582234
4646.00   1.87373674   0.02545102
4648.00   1.80553794   0.02507435
4650.00   1.80919683   0.02514887
4652.00   1.82594240   0.02526147
4654.00   1.82130492   0.02519367
4656.00   1.81656063   0.02518857
4658.00   1.80068576   0.02510012
4660.00   1.84360838   0.02543606
4662.00   1.82183957   0.02541208
4664.00   1.87414002   0.02574396
4666.00   1.95281374   0.02626838
4668.00   1.99968457   0.02654381
4670.00   2.04099464   0.02675804
4672.00   2.04311180   0.02672818
4674.00   2.04287314   0.02660299
4676.00   2.04358983   0.02654871
4678.00   2.02699542   0.02636245
4680.00   2.07110047   0.02658976
4682.00   2.01458287   0.02623863
4684.00   2.00618601   0.02606667
4686.00   2.00627398   0.02597274
4688.00   1.98733771   0.02586081
4690.00   1.91946280   0.02545199
4692.00   1.91626167   0.02543812
4694.00   1.91905320   0.02546706
4696.00   1.86890614   0.02512311
4698.00   1.92149699   0.02540764
4700.00   1.87764633   0.02498810
4702.00   1.87167382   0.02507523
4704.00   1.84831500   0.02488668
4706.00   1.83034587   0.02490047
4708.00   1.78149378   0.02469563
4710.00   1.81581390   0.02480279
4712.00   1.79543185   0.02473084
4714.00   1.74804056   0.02437568
4716.00   1.71339393   0.02411069
4718.00   1.70558953   0.02407859
4720.00   1.60015082   0.02347886
4722.00   1.67943490   0.02385901
4724.00   1.69816661   0.02387828
4726.00   1.69631302   0.02405650
4728.00   1.75100327   0.02468141
4730.00   1.75443280   0.02470449
4732.00   1.77637303   0.02476530
4734.00   1.77587450   0.02498429
4736.00   1.86505497   0.02546767
4738.00   1.82759190   0.02540840
4740.00   1.87008095   0.02569553
4742.00   1.86879349   0.02592907
4744.00   1.86249983   0.02574976
4746.00   1.81807649   0.02495421
4748.00   1.78813899   0.02456699
4750.00   1.77518165   0.02447844
4752.00   1.78754485   0.02454825
4754.00   1.71237111   0.02420005
4756.00   1.63423717   0.02362339
4758.00   1.70122159   0.02369802
4760.00   1.66050994   0.02349478
4762.00   1.65741313   0.02347125
4764.00   1.58399689   0.02304668
4766.00   1.56751192   0.02293840
4768.00   1.54358542   0.02272500
4770.00   1.51008940   0.02249628
4772.00   1.47937667   0.02222215
4774.00   1.44047356   0.02205701
4776.00   1.39247859   0.02177105
4778.00   1.35471284   0.02177924
4780.00   1.20618021   0.02082448
4782.00   1.20779431   0.02062970
4784.00   1.08011556   0.01965299
4786.00   1.00744069   0.01907820
4788.00   0.93567353   0.01858952
4790.00   0.87690067   0.01818282
4792.00   0.76155013   0.01724449
4794.00   0.73226732   0.01696993
4796.00   0.65780813   0.01639875
4798.00   0.61449385   0.01594968
4800.00   0.57973409   0.01562468
4802.00   0.55518317   0.01523837
4804.00   0.52249730   0.01507713
4806.00   0.49995869   0.01488080
4808.00   0.49254665   0.01475710
4810.00   0.43964043   0.01429591
4812.00   0.42477870   0.01413674
4814.00   0.38769841   0.01388584
4816.00   0.39715981   0.01400918
4818.00   0.41570011   0.01427052
4820.00   0.45658740   0.01457242
4822.00   0.46679598   0.01475278
4824.00   0.51162934   0.01510932
4826.00   0.51724452   0.01531871
4828.00   0.54226458   0.01547517
4830.00   0.61986524   0.01606154
4832.00   0.60886800   0.01614839
4834.00   0.64519632   0.01643366
4836.00   0.67459124   0.01654909
4838.00   0.69352108   0.01691408
4840.00   0.77289510   0.01757833
4842.00   0.80466497   0.01778088
4844.00   0.91481602   0.01839154
4846.00   1.04007876   0.01917858
4848.00   1.17871022   0.02026897
4850.00   1.32788336   0.02110753
4852.00   1.48830068   0.02214613
4854.00   1.68612063   0.02323675
4856.00   1.85545611   0.02400242
4858.00   1.95049179   0.02453437
4860.00   2.04848123   0.02515853
4862.00   2.16814065   0.02579322
4864.00   2.20501518   0.02590731
4866.00   2.26604295   0.02610996
4868.00   2.32639337   0.02637553
4870.00   2.38484788   0.02656463
4872.00   2.34224391   0.02638610
4874.00   2.32964611   0.02631846
4876.00   2.35191464   0.02636369
4878.00   2.34190297   0.02635460
4880.00   2.35084033   0.02659058
4882.00   2.35877490   0.02768959
4884.00   2.28448248   0.02759387
4886.00   2.09453082   0.02513229
4888.00   1.97034359   0.02432428
4890.00   1.77935398   0.02327696
4892.00   1.71972275   0.02303023
4894.00   1.57334733   0.02218128
4896.00   1.49640846   0.02175661
4898.00   1.35499740   0.02090726
4900.00   1.23297191   0.02007012
4902.00   1.26498473   0.02017829
4904.00   1.22901273   0.02002814
4906.00   1.20067692   0.01989769
4908.00   1.24722743   0.02017199
4910.00   1.21681070   0.01998289
4912.00   1.27797246   0.02036382
4914.00   1.37636077   0.02091118
4916.00   1.41949415   0.02123357
4918.00   1.53777707   0.02192035
4920.00   1.67924798   0.02267415
4922.00   1.75773787   0.02311577
4924.00   1.91310763   0.02384606
4926.00   2.03535700   0.02441648
4928.00   2.16760731   0.02506393
4930.00   2.24418831   0.02541504
4932.00   2.39205790   0.02607623
4934.00   2.43301845   0.02636858
4936.00   2.56247520   0.02694845
4938.00   2.59641337   0.02715507
4940.00   2.60383534   0.02714302
4942.00   2.64086151   0.02725134
4944.00   2.67367244   0.02737105
4946.00   2.73687339   0.02761794
4948.00   2.69508910   0.02742350
4950.00   2.71910882   0.02754761
4952.00   2.65512204   0.02742301
4954.00   2.63834524   0.02738637
4956.00   2.65725398   0.02730994
4958.00   2.64963865   0.02727875
4960.00   2.57210469   0.02693906
4962.00   2.43504095   0.02633880
4964.00   2.41645217   0.02624815
4966.00   2.32880211   0.02586656
4968.00   2.24527693   0.02558096
4970.00   2.16578007   0.02530925
4972.00   2.04253507   0.02483777
4974.00   1.95429814   0.02460456
4976.00   1.84974504   0.02417929
4978.00   1.73957014   0.02400523
4980.00   1.74286878   0.02445391
4982.00   1.55017269   0.02371360
4984.00   1.38270390   0.02250780
4986.00   1.23950505   0.02128988
4988.00   1.09472704   0.02008752
4990.00   1.04568851   0.01949128
4992.00   0.92796338   0.01855795
4994.00   0.85521543   0.01802368
4996.00   0.82762659   0.01751559
4998.00   0.84105653   0.01755809
5000.00   0.86880618   0.01753087
5002.00   0.95031589   0.01799909
5004.00   1.01062632   0.01847092
5006.00   1.05109406   0.01866417
5008.00   1.19687986   0.01959267
5010.00   1.32163882   0.02037158
5012.00   1.46515846   0.02123338
5014.00   1.57915628   0.02186036
5016.00   1.68144691   0.02253496
5018.00   1.79841721   0.02317911
5020.00   1.97465682   0.02414638
5022.00   2.00368214   0.02427482
5024.00   2.11153054   0.02467119
5026.00   2.28261471   0.02578336
5028.00   2.60590148   0.02814239
5030.00   2.59907627   0.02875170
5032.00   2.50542998   0.02732365
5034.00   2.46982789   0.02664332
5036.00   2.48390913   0.02655474
5038.00   2.51984501   0.02671341
5040.00   2.55509496   0.02686715
5042.00   2.51636195   0.02673277
5044.00   2.54740548   0.02687462
5046.00   2.55798483   0.02699132
5048.00   2.47329426   0.02660822
5050.00   2.44056201   0.02642839
5052.00   2.41722035   0.02640899
5054.00   2.42325139   0.02633255
5056.00   2.34234428   0.02621057
5058.00   2.23658252   0.02562285
5060.00   2.33244038   0.02602251
5062.00   2.21965337   0.02560706
5064.00   2.16940856   0.02542321
5066.00   2.17888403   0.02547793
5068.00   2.10585022   0.02535979
5070.00   2.06404138   0.02537110
5072.00   2.07727861   0.02510285
5074.00   2.06614900   0.02498384
5076.00   1.97680449   0.02455395
5078.00   1.96698427   0.02457630
5080.00   1.96114695   0.02495253
5082.00   1.94494283   0.02550998
5084.00   1.96726310   0.02592111
5086.00   1.91383672   0.02571470
5088.00   1.90643203   0.02526440
5090.00   1.89242733   0.02465471
5092.00   1.83987701   0.02405410
5094.00   1.85916758   0.02405421
5096.00   1.79351842   0.02378581
5098.00   1.80404139   0.02404363
5100.00   1.81741309   0.02417072
5102.00   1.76618516   0.02369939
5104.00   1.69275045   0.02312732
5106.00   1.69434190   0.02309414
5108.00   1.60252011   0.02264892
5110.00   1.56857538   0.02247567
5112.00   1.50139832   0.02203226
5114.00   1.45161414   0.02178506
5116.00   1.47497380   0.02197151
5118.00   1.42412400   0.02158136
5120.00   1.33306217   0.02099070
5122.00   1.28241897   0.02065009
5124.00   1.23374128   0.02030537
5126.00   1.15473902   0.01991918
5128.00   1.11075711   0.01960767
5130.00   1.03499925   0.01904406
5132.00   0.98537153   0.01869370
5134.00   0.87843871   0.01791476
5136.00   0.81464052   0.01745829
5138.00   0.76443511   0.01708949
5140.00   0.71356493   0.01682652
5142.00   0.70753425   0.01675824
5144.00   0.69020796   0.01661024
5146.00   0.67421651   0.01655343
5148.00   0.71176565   0.01702248
5150.00   0.70907485   0.01723313
5152.00   0.76251328   0.01787049
5154.00   0.84360766   0.01852999
5156.00   0.85597533   0.01852591
5158.00   0.88049901   0.01857752
5160.00   0.92570406   0.01864380
5162.00   1.00141108   0.01915558
5164.00   1.09967315   0.01975336
5166.00   1.08155537   0.01959451
5168.00   1.12265694   0.01994266
5170.00   1.18464506   0.02023507
5172.00   1.25209510   0.02076183
5174.00   1.32681358   0.02131117
5176.00   1.31410265   0.02125036
5178.00   1.36575162   0.02160912
5180.00   1.42709577   0.02206564
5182.00   1.48387098   0.02247914
5184.00   1.58966887   0.02305678
5186.00   1.59403324   0.02310485
5188.00   1.67328465   0.02350387
5190.00   1.67532504   0.02354885
5192.00   1.74184752   0.02390424
5194.00   1.74202967   0.02406535
5196.00   1.86533999   0.02483633
5198.00   1.87992311   0.02500335
5200.00   1.89857006   0.02513234
5202.00   1.89083898   0.02518639
5204.00   1.81258655   0.02464066
5206.00   1.79156864   0.02453438
5208.00   1.78251076   0.02458622
5210.00   1.77716362   0.02480791
5212.00   1.73045838   0.02440434
5214.00   1.66342461   0.02399125
5216.00   1.67230725   0.02411918
5218.00   1.60859323   0.02391340
5220.00   1.59338284   0.02400288
5222.00   1.62274694   0.02420041
5224.00   1.57771122   0.02392821
5226.00   1.59292758   0.02406779
5228.00   1.60885656   0.02413547
5230.00   1.67174351   0.02454986
5232.00   1.68338192   0.02460293
5234.00   1.70600462   0.02490513
5236.00   1.82644510   0.02561322
5238.00   1.76053655   0.02546769
5240.00   1.81783354   0.02584001
5242.00   1.79470122   0.02570156
5244.00   1.78307068   0.02572259
5246.00   1.78244400   0.02572108
5248.00   1.77206767   0.02564381
5250.00   1.72288346   0.02546367
5252.00   1.66678345   0.02522931
5254.00   1.66510749   0.02517623
5256.00   1.57182097   0.02482227
5258.00   1.59474862   0.02504051
5260.00   1.54390979   0.02474962
5262.00   1.54903138   0.02484960
5264.00   1.55181849   0.02472055
5266.00   1.59656978   0.02516018
5268.00   1.61832142   0.02522736
5270.00   1.63379192   0.02550845
5272.00   1.65529263   0.02566997
5274.00   1.74594772   0.02621532
5276.00   1.71481729   0.02607755
5278.00   1.81024790   0.02675540
5280.00   1.74951386   0.02641573
5282.00   1.74640882   0.02650943
5284.00   1.73838091   0.02663562
5286.00   1.81332445   0.02690642
5288.00   1.64255369   0.02597188
5290.00   1.63793886   0.02595239
5292.00   1.59369111   0.02569152
5294.00   1.55470872   0.02548415
5296.00   1.50804842   0.02519508
5298.00   1.42787182   0.02474408
5300.00   1.36662650   0.02440949
5302.00   1.39708436   0.02451529
5304.00   1.41969180   0.02484775
5306.00   1.41106689   0.02487718
5308.00   1.45502102   0.02521412
5310.00   1.40935123   0.02496723
5312.00   1.54843128   0.02601917
5314.00   1.56226110   0.02613911
5316.00   1.63005340   0.02664723
5318.00   1.65283060   0.02685471
5320.00   1.64740443   0.02688259
5322.00   1.74686468   0.02746432
5324.00   1.72873461   0.02739817
5326.00   1.78992200   0.02784262
5328.00   1.80637717   0.02816276
5330.00   1.86812997   0.02864201
5332.00   1.95855963   0.02934196
5334.00   1.96632075   0.02931863
5336.00   1.94516695   0.02939886
5338.00   1.96667719   0.02960340
5340.00   2.05339050   0.03034044
5342.00   1.94962788   0.03009341
5344.00   1.94244683   0.02996572
5346.00   2.00475264   0.03035209
5348.00   2.00166416   0.03055675
5350.00   1.97559142   0.03074996
5352.00   1.91166186   0.03026223
5354.00   1.96230984   0.03079217
5356.00   1.91016734   0.03084212
5358.00   1.97311354   0.03107966
5360.00   1.96314323   0.03088474
5362.00   1.95492923   0.03086033
5364.00   1.90570080   0.03070350
5366.00   1.92763364   0.03086261
5368.00   1.97987437   0.03142002
5370.00   2.01248503   0.03169579
5372.00   1.99241257   0.03193023
5374.00   1.98924100   0.03214656
5376.00   1.97155106   0.03235333
5378.00   1.96191800   0.03246081
5380.00   1.93106687   0.03236734
5382.00   1.98258340   0.03282644
5384.00   2.08318400   0.03356656
5386.00   2.02669525   0.03333277
5388.00   2.06192827   0.03373883
5390.00   1.93752277   0.03342109
5392.00   1.94773293   0.03374538
5394.00   1.95277011   0.03397924
5396.00   2.01915431   0.03436932
5398.00   1.96742153   0.03421931
5400.00   1.92501450   0.03413112
5402.00   1.96163595   0.03441607
5404.00   2.00504851   0.03496941
5406.00   1.88152325   0.03435107
5408.00   1.85379171   0.03435984
5410.00   1.86715508   0.03474051
5412.00   1.87240779   0.03503623
5414.00   1.97509003   0.03612152
5416.00   1.87214184   0.03579602
5418.00   1.96499240   0.03654514
5420.00   1.93483031   0.03664114
5422.00   1.94552159   0.03694337
5424.00   2.01696324   0.03718729
5426.00   2.09379029   0.03795972
5428.00   2.08382416   0.03802989
5430.00   2.05518913   0.03779443
5432.00   2.03892303   0.03783420
5434.00   2.13419437   0.03858311
5436.00   2.08191228   0.03822263
5438.00   2.18067980   0.03915348
5440.00   2.16306591   0.03907277
5442.00   2.25768971   0.04001527
5444.00   2.27222729   0.04034623
5446.00   2.19536185   0.01391106
5448.00   2.19002271   0.01400415
5450.00   2.12968087   0.01286683
5452.00   2.09113073   0.01236156
5454.00   2.06392956   0.01230768
5456.00   2.03828955   0.01239967
5458.00   2.00978732   0.01255082
5460.00   1.98105574   0.01279749
5462.00   1.95903635   0.01290544
5464.00   1.94486487   0.01303094
5466.00   1.92659044   0.01293644
5468.00   1.90639567   0.01229362
5470.00   1.88706386   0.01213744
5472.00   1.87340236   0.01313231
5474.00   1.85884368   0.01438774
5476.00   1.82282472   0.01437073
5478.00   1.74597597   0.01326813
5480.00   1.73796225   0.01278026
5482.00   1.79571605   0.01239937
5484.00   1.83187616   0.01215182
5486.00   1.83737159   0.01196783
5488.00   1.83083642   0.01200200
5490.00   1.82209003   0.01254623
5492.00   1.80316186   0.01359905
5494.00   1.79790628   0.01406337
5496.00   1.81681359   0.01465580
5498.00   1.80444598   0.01436886
5500.00   1.75302899   0.01255716
5502.00   1.69534671   0.01052750
5504.00   1.65328801   0.01018527
5506.00   1.61518002   0.01097587
5508.00   1.60188639   0.01110392
5510.00   1.62940884   0.01094307
5512.00   1.62346327   0.01125157
5514.00   1.58391213   0.01187140
5516.00   1.55128896   0.01269056
5518.00   1.53974664   0.01392363
5520.00   1.54207122   0.01524099
5522.00   1.57570457   0.01523372
5524.00   1.65160990   0.01383400
5526.00   1.71151114   0.01304699
5528.00   1.78153837   0.01212409
5530.00   1.83636343   0.01154079
5532.00   1.86444139   0.01156379
5534.00   1.88100171   0.01192574
5536.00   1.91244376   0.01218928
5538.00   1.95077896   0.01262316
5540.00   1.98573923   0.01276184
5542.00   2.03104424   0.01254360
5544.00   2.05566072   0.01259465
5546.00   2.05124187   0.01319643
5548.00   2.03752708   0.01368745
5550.00   2.03535485   0.01327735
5552.00   2.03578353   0.01203176
5554.00   2.03820276   0.01164519
5556.00   2.05159235   0.01183329
5558.00   2.04863715   0.01192373
5560.00   2.02525711   0.01209143
5562.00   2.00068784   0.01216225
5564.00   1.98601687   0.01179805
5566.00   1.97541630   0.01110426
5568.00   1.97951400   0.01169928
5570.00   2.01414371   0.01332147
5572.00   2.01558399   0.01455666
5574.00   2.00081015   0.01593895
5576.00   1.96505237   0.01698039
5578.00   1.89020443   0.01780096
5580.00   1.79692221   0.01826836
5582.00   1.76893806   0.01717686
5584.00   1.79489887   0.01309607
5586.00   1.80501211   0.01123310
5588.00   1.82826710   0.01118279
5590.00   1.84167182   0.01127398
5592.00   1.84157681   0.01140458
5594.00   1.83255363   0.01160205
5596.00   1.81549609   0.01133836
5598.00   1.78492069   0.01062631
5600.00   1.76655948   0.01035158
5602.00   1.75137949   0.01024745
5604.00   1.74232888   0.01034370
5606.00   1.74512959   0.01082844
5608.00   1.74702752   0.01126082
5610.00   1.73347378   0.01119128
5612.00   1.70961499   0.01078379
5614.00   1.68908465   0.01045471
5616.00   1.66969264   0.00971833
5618.00   1.64416242   0.00964536
5620.00   1.60772371   0.01042024
5622.00   1.57512963   0.01110518
5624.00   1.55732405   0.01131305
5626.00   1.54819322   0.01129041
5628.00   1.53009510   0.01085503
5630.00   1.51066697   0.00946653
5632.00   1.48506451   0.00887365
5634.00   1.44733512   0.00895899
5636.00   1.41672492   0.00907804
5638.00   1.40091753   0.00905866
5640.00   1.39284611   0.00902337
5642.00   1.38260067   0.00892682
5644.00   1.37737131   0.00849837
5646.00   1.36368132   0.00884735
5648.00   1.33185959   0.01010575
5650.00   1.32129681   0.01071615
5652.00   1.34234178   0.01040528
5654.00   1.37603796   0.00986707
5656.00   1.39941943   0.01007264
5658.00   1.41982186   0.01080965
5660.00   1.44970179   0.01089781
5662.00   1.48912287   0.01056982
5664.00   1.52586079   0.01029020
5666.00   1.56264246   0.00982195
5668.00   1.59632337   0.00957783
5670.00   1.62294805   0.01016779
5672.00   1.64422667   0.01133088
5674.00   1.66227257   0.01147375
5676.00   1.67339659   0.01076752
5678.00   1.68715370   0.01049150
5680.00   1.69956470   0.01041865
5682.00   1.71572936   0.01050905
5684.00   1.74336278   0.01086070
5686.00   1.77636182   0.01136345
5688.00   1.78304291   0.01143464
5690.00   1.75591981   0.01111441
5692.00   1.75820422   0.01099773
5694.00   1.79082572   0.01090444
5696.00   1.80254281   0.01087244
5698.00   1.76991606   0.01099380
5700.00   1.72164905   0.01112977
5702.00   1.70976901   0.01092774
5704.00   1.72425902   0.01037169
5706.00   1.72204471   0.01004644
5708.00   1.71922278   0.00974135
5710.00   1.70734727   0.00957184
5712.00   1.67893791   0.00953042
5714.00   1.64945722   0.00964150
5716.00   1.63901246   0.01002606
5718.00   1.63966048   0.01076466
5720.00   1.64695060   0.01073711
5722.00   1.67864168   0.00972519
5724.00   1.68426621   0.00950252
5726.00   1.66122651   0.01002212
5728.00   1.63178372   0.01085876
5730.00   1.60629988   0.01208218
5732.00   1.57843864   0.01360687
5734.00   1.58196580   0.01329611
5736.00   1.62966633   0.01033237
5738.00   1.64249527   0.00927913
5740.00   1.62690878   0.01035121
5742.00   1.61279655   0.01114914
5744.00   1.61134601   0.01079134
5746.00   1.61542666   0.00995029
5748.00   1.62381101   0.00979116
5750.00   1.64689898   0.01005604
5752.00   1.64999545   0.01024594
5754.00   1.63882208   0.01079864
5756.00   1.62611306   0.01088733
5758.00   1.61248255   0.01003260
5760.00   1.59820747   0.00885496
5762.00   1.58865297   0.00894848
5764.00   1.58337998   0.01008695
5766.00   1.57431602   0.01041558
5768.00   1.55676377   0.01059055
5770.00   1.55214548   0.01047778
5772.00   1.56799293   0.00980302
5774.00   1.58558536   0.00908733
5776.00   1.58454883   0.00913893
5778.00   1.57190323   0.00973168
5780.00   1.56514585   0.00988275
5782.00   1.55393851   0.00978594
5784.00   1.55274653   0.00987176
5786.00   1.56781328   0.01022276
5788.00   1.57832658   0.01045297
5790.00   1.57018137   0.01027604
5792.00   1.55074728   0.00983393
5794.00   1.53085828   0.00972269
5796.00   1.49808717   0.00991623
5798.00   1.48100615   0.00984183
5800.00   1.48052287   0.00948959
5802.00   1.47522080   0.00925046
5804.00   1.45792472   0.00935938
5806.00   1.43399298   0.00959518
5808.00   1.40593112   0.00948524
5810.00   1.36666727   0.00909047
5812.00   1.33933008   0.00881558
5814.00   1.32477450   0.00844963
5816.00   1.30078948   0.00824453
5818.00   1.26065958   0.00834046
5820.00   1.21583009   0.00851134
5822.00   1.18082941   0.00841783
5824.00   1.14958000   0.00813496
5826.00   1.12289107   0.00798558
5828.00   1.10938632   0.00788131
5830.00   1.08222485   0.00779004
5832.00   1.03462541   0.00764389
5834.00   0.98719758   0.00760073
5836.00   0.95807415   0.00789018
5838.00   0.93932039   0.00844718
5840.00   0.92565554   0.00846812
5842.00   0.91876519   0.00769858
5844.00   0.91888177   0.00781811
5846.00   0.92848796   0.00889874
5848.00   0.94131589   0.00978303
5850.00   0.95574349   0.01012534
5852.00   0.97226334   0.01020083
5854.00   0.97989881   0.00983765
5856.00   0.97422355   0.00851646
5858.00   0.98304874   0.00792363
5860.00   1.00403881   0.00782988
5862.00   1.02289236   0.00785038
5864.00   1.03681028   0.00792356
5866.00   1.04757500   0.00807178
5868.00   1.05156362   0.00814844
5870.00   1.04081869   0.00822596
5872.00   1.05383658   0.00824011
5874.00   1.08164740   0.00809184
5876.00   1.11623061   0.00812600
5878.00   1.15692723   0.00833023
5880.00   1.20525908   0.00870225
5882.00   1.26122355   0.00923080
5884.00   1.32287586   0.00974115
5886.00   1.40271819   0.01109964
5888.00   1.52394748   0.01287692
5890.00   1.60297894   0.01476103
5892.00   1.64310491   0.01754602
5894.00   1.66107392   0.01928666
5896.00   1.65407610   0.01863605
5898.00   1.61827064   0.01610381
5900.00   1.65841234   0.01442320
5902.00   1.78152287   0.01228087
5904.00   1.85010087   0.01076334
5906.00   1.88837731   0.01011335
5908.00   1.91134286   0.00982495
5910.00   1.91964948   0.00975541
5912.00   1.91461146   0.00996875
5914.00   1.91856337   0.00987282
5916.00   1.92639470   0.00933871
5918.00   1.92804062   0.00951515
5920.00   1.92587316   0.01034351
5922.00   1.92154431   0.01095180
5924.00   1.91535568   0.01133501
5926.00   1.90701616   0.01149065
5928.00   1.89619768   0.01100541
5930.00   1.88096690   0.00945680
5932.00   1.87075162   0.00909915
5934.00   1.86723232   0.00965140
5936.00   1.85684192   0.01012214
5938.00   1.83706641   0.01069273
5940.00   1.81450641   0.01109822
5942.00   1.79565895   0.01085519
5944.00   1.77801788   0.01000342
5946.00   1.75897038   0.00972256
5948.00   1.73493659   0.00969356
5950.00   1.71974504   0.00979561
5952.00   1.71410501   0.01020152
5954.00   1.71121275   0.01052256
5956.00   1.70704091   0.01046532
5958.00   1.70364892   0.01017849
5960.00   1.70083058   0.01009793
5962.00   1.69633210   0.01012187
5964.00   1.69778073   0.01009844
5966.00   1.71168041   0.01014091
5968.00   1.71615541   0.01004932
5970.00   1.69990230   0.00955319
5972.00   1.67269135   0.00890596
5974.00   1.65384209   0.00920796
5976.00   1.63271904   0.01066117
5978.00   1.62207866   0.01084249
5980.00   1.62202752   0.01014572
5982.00   1.62149620   0.00961329
5984.00   1.62288880   0.00941598
5986.00   1.62115872   0.00940277
5988.00   1.60028100   0.00964967
5990.00   1.55249000   0.01035159
5992.00   1.55138493   0.01023942
5994.00   1.59776831   0.00921852
5996.00   1.61986721   0.00868264
5998.00   1.60781693   0.00848699
6000.00   1.59596944   0.00886670
6002.00   1.62013471   0.01039075
6004.00   1.67193031   0.01269314
6006.00   1.66891193   0.01289721
6008.00   1.61133564   0.01133768
6010.00   1.58483386   0.01036242
6012.00   1.58336794   0.00959390
6014.00   1.58324349   0.00906659
6016.00   1.57163191   0.00897238
6018.00   1.55578947   0.00923679
6020.00   1.54810774   0.00939999
6022.00   1.53925896   0.00990296
6024.00   1.54577816   0.00980103
6026.00   1.57737935   0.00893569
6028.00   1.59623742   0.00831821
6030.00   1.58783674   0.00848267
6032.00   1.56606102   0.00897030
6034.00   1.55000746   0.00911422
6036.00   1.52622867   0.00914147
6038.00   1.51944387   0.00918573
6040.00   1.52872872   0.00919265
6042.00   1.53517151   0.00920373
6044.00   1.53640449   0.00929630
6046.00   1.53697872   0.00932198
6048.00   1.54157233   0.00898983
6050.00   1.55255854   0.00818146
6052.00   1.54399216   0.00812429
6054.00   1.50924337   0.00888827
6056.00   1.49379218   0.00909691
6058.00   1.50052524   0.00862588
6060.00   1.51110840   0.00815026
6062.00   1.51282775   0.00832215
6064.00   1.51177740   0.00886996
6066.00   1.50706100   0.00911002
6068.00   1.49195123   0.00933329
6070.00   1.48905420   0.00937609
6072.00   1.49734318   0.00925907
6074.00   1.50746834   0.00902044
6076.00   1.51575804   0.00847468
6078.00   1.52425289   0.00775164
6080.00   1.53118789   0.00815082
6082.00   1.53607869   0.00960144
6084.00   1.54269421   0.01040962
6086.00   1.55941188   0.01151755
6088.00   1.56028974   0.01180440
6090.00   1.53005505   0.01064843
6092.00   1.48933864   0.00866401
6094.00   1.48015022   0.00801647
6096.00   1.50086915   0.00837729
6098.00   1.48712826   0.00850347
6100.00   1.45096278   0.00906241
6102.00   1.41512084   0.00919134
6104.00   1.37442315   0.00859790
6106.00   1.33768260   0.00791297
6108.00   1.32219946   0.00812109
6110.00   1.32504892   0.00898290
6112.00   1.31346345   0.00907224
6114.00   1.29387605   0.00872212
6116.00   1.27921748   0.00838027
6118.00   1.26710439   0.00786281
6120.00   1.25873172   0.00741351
6122.00   1.25572157   0.00733320
6124.00   1.25729525   0.00750887
6126.00   1.26232731   0.00751025
6128.00   1.26978755   0.00749529
6130.00   1.28429484   0.00742966
6132.00   1.30245090   0.00697488
6134.00   1.33026528   0.00702285
6136.00   1.37335610   0.00811325
6138.00   1.42634463   0.00951880
6140.00   1.47161984   0.01016793
6142.00   1.52348328   0.01075089
6144.00   1.55412054   0.01063320
6146.00   1.56129241   0.00950014
6148.00   1.57444453   0.00863451
6150.00   1.60087371   0.00848513
6152.00   1.63055396   0.00863608
6154.00   1.65264976   0.00865549
6156.00   1.67206180   0.00873454
6158.00   1.68594575   0.00877698
6160.00   1.69278944   0.00891631
6162.00   1.69975281   0.00884425
6164.00   1.70723283   0.00828383
6166.00   1.71330655   0.00782726
6168.00   1.71646559   0.00835254
6170.00   1.71716523   0.00955831
6172.00   1.71743929   0.00975634
6174.00   1.71654165   0.00938434
6176.00   1.71471643   0.00897027
6178.00   1.71219146   0.00816641
6180.00   1.70831287   0.00749325
6182.00   1.70283484   0.00753281
6184.00   1.69587910   0.00801089
6186.00   1.68639338   0.00805830
6188.00   1.67372477   0.00792373
6190.00   1.66124868   0.00780309
6192.00   1.64832211   0.00748961
6194.00   1.63434947   0.00739002
6196.00   1.61931217   0.00777721
6198.00   1.60312974   0.00833058
6200.00   1.58502042   0.00842457
6202.00   1.56351733   0.00824329
6204.00   1.54538035   0.00804672
6206.00   1.52949321   0.00762330
6208.00   1.51322079   0.00731668
6210.00   1.49679172   0.00720950
6212.00   1.47971010   0.00719547
6214.00   1.46000564   0.00717144
6216.00   1.43673253   0.00718776
6218.00   1.41980398   0.00720226
6220.00   1.40726554   0.00727592
6222.00   1.39552259   0.00726393
6224.00   1.38607514   0.00704739
6226.00   1.37641203   0.00691853
6228.00   1.36101437   0.00723157
6230.00   1.34018230   0.00784673
6232.00   1.34392607   0.00797495
6234.00   1.37150061   0.00766611
6236.00   1.39320624   0.00766602
6238.00   1.41192257   0.00790765
6240.00   1.43524718   0.00817908
6242.00   1.46863353   0.00839893
6244.00   1.50831568   0.00861461
6246.00   1.53984618   0.00881923
6248.00   1.56770396   0.00922104
6250.00   1.59411490   0.00913328
6252.00   1.62291515   0.00849576
6254.00   1.64198601   0.00793167
6256.00   1.64495099   0.00758220
6258.00   1.63964307   0.00741039
6260.00   1.64139974   0.00768403
6262.00   1.64586091   0.00862027
6264.00   1.64656520   0.00870671
6266.00   1.63951349   0.00801047
6268.00   1.64210081   0.00772835
6270.00   1.66339004   0.00817596
6272.00   1.68460798   0.00871502
6274.00   1.68033946   0.00875809
6276.00   1.65688527   0.00852862
6278.00   1.64433897   0.00831404
6280.00   1.63385725   0.00761730
6282.00   1.62286973   0.00765373
6284.00   1.61023605   0.00868849
6286.00   1.59938407   0.00959141
6288.00   1.59294283   0.00979018
6290.00   1.58966136   0.00964142
6292.00   1.58868158   0.00923898
6294.00   1.59403646   0.00803429
6296.00   1.59358728   0.00747487
6298.00   1.58516920   0.00735267
6300.00   1.58132863   0.00761816
6302.00   1.59035897   0.00843707
6304.00   1.60555673   0.00947240
6306.00   1.60832965   0.00968667
6308.00   1.60812616   0.00939192
6310.00   1.59567332   0.00902589
6312.00   1.56348872   0.00803532
6314.00   1.53998637   0.00745303
6316.00   1.53135884   0.00772455
6318.00   1.53038347   0.00837290
6320.00   1.53345835   0.00887143
6322.00   1.55326068   0.00950556
6324.00   1.53697634   0.00985853
6326.00   1.47528315   0.01022912
6328.00   1.44437003   0.01019036
6330.00   1.45518816   0.00943667
6332.00   1.47565436   0.00856598
6334.00   1.47863686   0.00849702
6336.00   1.47815967   0.00895860
6338.00   1.45687306   0.00921688
6340.00   1.40068853   0.00975205
6342.00   1.37148511   0.00979669
6344.00   1.36782014   0.00921294
6346.00   1.36912990   0.00860031
6348.00   1.36517239   0.00845232
6350.00   1.36128628   0.00854990
6352.00   1.35100842   0.00851559
6354.00   1.33274436   0.00856301
6356.00   1.31911087   0.00841905
6358.00   1.30789888   0.00811041
6360.00   1.29668260   0.00771256
6362.00   1.28445160   0.00714059
6364.00   1.27207947   0.00647131
6366.00   1.26088250   0.00628308
6368.00   1.24642658   0.00651859
6370.00   1.24338067   0.00675369
6372.00   1.25296175   0.00736546
6374.00   1.25924242   0.00758790
6376.00   1.25871789   0.00717388
6378.00   1.25693870   0.00654697
6380.00   1.25956714   0.00645947
6382.00   1.26356733   0.00669419
6384.00   1.27286851   0.00691631
6386.00   1.29361749   0.00735780
6388.00   1.30355346   0.00759679
6390.00   1.29620111   0.00755584
6392.00   1.29014504   0.00752839
6394.00   1.30455339   0.00785841
6396.00   1.33324993   0.00844441
6398.00   1.34667361   0.00833182
6400.00   1.35640657   0.00730023
6402.00   1.35683775   0.00697327
6404.00   1.35092616   0.00754868
6406.00   1.33399177   0.00790535
6408.00   1.29557598   0.00738988
6410.00   1.24310136   0.00630119
6412.00   1.22904885   0.00594016
6414.00   1.25689363   0.00611578
6416.00   1.25318682   0.00621301
6418.00   1.23286521   0.00635800
6420.00   1.20922339   0.00664451
6422.00   1.18839073   0.00724765
6424.00   1.16355491   0.00785590
6426.00   1.12096882   0.00778688
6428.00   1.05637956   0.00708531
6430.00   1.00827289   0.00661912
6432.00   0.96851367   0.00596910
6434.00   0.92678022   0.00554528
6436.00   0.88314646   0.00557874
6438.00   0.83764398   0.00573376
6440.00   0.78764236   0.00555998
6442.00   0.73240626   0.00517088
6444.00   0.68340588   0.00492964
6446.00   0.63691157   0.00472774
6448.00   0.59311783   0.00456670
6450.00   0.55055010   0.00446967
6452.00   0.51251245   0.00439890
6454.00   0.48259154   0.00429483
6456.00   0.45948923   0.00417195
6458.00   0.43553385   0.00427118
6460.00   0.40991241   0.00464438
6462.00   0.39361119   0.00481865
6464.00   0.38777751   0.00496819
6466.00   0.38350138   0.00494422
6468.00   0.37732336   0.00453257
6470.00   0.37116751   0.00382864
6472.00   0.36305645   0.00374749
6474.00   0.34629688   0.00428516
6476.00   0.34594151   0.00446196
6478.00   0.35923627   0.00453866
6480.00   0.37362838   0.00462048
6482.00   0.38648722   0.00473616
6484.00   0.40042150   0.00484987
6486.00   0.41623780   0.00492114
6488.00   0.43234316   0.00496594
6490.00   0.45447645   0.00499237
6492.00   0.48229760   0.00492599
6494.00   0.51159602   0.00498015
6496.00   0.54031056   0.00527766
6498.00   0.57305098   0.00552454
6500.00   0.61712110   0.00535379
6502.00   0.67313737   0.00476122
6504.00   0.71228081   0.00482293
6506.00   0.73436886   0.00517357
6508.00   0.76910067   0.00581188
6510.00   0.81423682   0.00686643
6512.00   0.86445349   0.00774166
6514.00   0.91825360   0.00825869
6516.00   0.97654629   0.00860821
6518.00   1.03180468   0.00838262
6520.00   1.08021283   0.00707626
6522.00   1.14273512   0.00659584
6524.00   1.21731400   0.00672219
6526.00   1.29624474   0.00710228
6528.00   1.37591124   0.00767774
6530.00   1.45926940   0.00838377
6532.00   1.55133808   0.00887167
6534.00   1.63663507   0.00927615
6536.00   1.76432180   0.00965970
6538.00   1.93328750   0.01006294
6540.00   2.10538411   0.01033950
6542.00   2.27833557   0.01041342
6544.00   2.45323348   0.01043155
6546.00   2.62034750   0.01061691
6548.00   2.78215408   0.01083191
6550.00   2.94589067   0.01128643
6552.00   3.09361243   0.01195138
6554.00   3.27228069   0.01262454
6556.00   3.50902152   0.01342949
6558.00   3.73759508   0.01411732
6560.00   3.88701248   0.01442307
6562.00   3.98297262   0.01446259
6564.00   4.08826780   0.01460329
6566.00   4.17226934   0.01482464
6568.00   4.26630354   0.01481135
6570.00   4.39625931   0.01446245
6572.00   4.48531961   0.01415295
6574.00   4.47551107   0.01411467
6576.00   4.39968014   0.01422831
6578.00   4.35808611   0.01444677
6580.00   4.29159594   0.01527731
6582.00   4.27983952   0.01506400
6584.00   4.32344389   0.01364440
6586.00   4.36500549   0.01241674
6588.00   4.39995289   0.01209413
6590.00   4.42400646   0.01220254
6592.00   4.38282347   0.01210380
6594.00   4.26984215   0.01199372
6596.00   4.19101048   0.01205055
6598.00   4.11720228   0.01242583
6600.00   4.04002285   0.01252177
6602.00   3.95584559   0.01222660
6604.00   3.87145758   0.01174062
6606.00   3.79629374   0.01122982
6608.00   3.72727203   0.01042301
6610.00   3.65957737   0.01040098
6612.00   3.60112381   0.01121524
6614.00   3.53246903   0.01167203
6616.00   3.44759059   0.01188854
6618.00   3.36480045   0.01197025
6620.00   3.30226231   0.01186949
6622.00   3.25360608   0.01156647
6624.00   3.18676972   0.01163400
6626.00   3.09554887   0.01229787
6628.00   3.03437233   0.01220317
6630.00   3.00687742   0.01110666
6632.00   2.97586918   0.01019639
6634.00   2.91783476   0.01047616
6636.00   2.84863615   0.01130711
6638.00   2.80966187   0.01114326
6640.00   2.79658246   0.00986157
6642.00   2.77416635   0.00964554
6644.00   2.75516152   0.01010016
6646.00   2.73204017   0.01070368
6648.00   2.70648098   0.01166724
6650.00   2.67466068   0.01251837
6652.00   2.62168264   0.01198273
6654.00   2.54282427   0.00950748
6656.00   2.48324752   0.00889202
6658.00   2.42639542   0.00996123
6660.00   2.38016295   0.01037990
6662.00   2.35354495   0.00990698
6664.00   2.32798076   0.00927948
6666.00   2.27529979   0.00935097
6668.00   2.19838166   0.00992620
6670.00   2.16150761   0.00986290
6672.00   2.16092157   0.00931943
6674.00   2.14405704   0.00891707
6676.00   2.11229110   0.00860855
6678.00   2.07957506   0.00832606
6680.00   2.05506754   0.00796667
6682.00   2.03463149   0.00754914
6684.00   2.00651813   0.00783500
6686.00   1.97192395   0.00912017
6688.00   1.94001722   0.00940020
6690.00   1.90710676   0.00897179
6692.00   1.87727928   0.00840147
6694.00   1.85258090   0.00783978
6696.00   1.83154356   0.00720558
6698.00   1.81233001   0.00693513
6700.00   1.80019736   0.00708163
6702.00   1.77908480   0.00704773
6704.00   1.74781811   0.00700300
6706.00   1.72298205   0.00696997
6708.00   1.70955014   0.00695867
6710.00   1.70064294   0.00695459
6712.00   1.68745720   0.00692868
6714.00   1.67380488   0.00685982
6716.00   1.65816009   0.00690453
6718.00   1.63918936   0.00712355
6720.00   1.62227345   0.00718502
6722.00   1.60645318   0.00703988
6724.00   1.59301281   0.00683962
6726.00   1.58437264   0.00672628
6728.00   1.57993579   0.00663476
6730.00   1.57546675   0.00660507
6732.00   1.57563329   0.00667299
6734.00   1.57012999   0.00668827
6736.00   1.55999219   0.00665738
6738.00   1.54690921   0.00662607
6740.00   1.53008246   0.00662050
6742.00   1.50995588   0.00662703
6744.00   1.49775243   0.00662804
6746.00   1.49356091   0.00664323
6748.00   1.48419678   0.00662781
6750.00   1.47157598   0.00640220
6752.00   1.45946550   0.00647115
6754.00   1.44842803   0.00711767
6756.00   1.43841231   0.00794926
6758.00   1.43187368   0.00834573
6760.00   1.42497015   0.00862483
6762.00   1.42878175   0.00865025
6764.00   1.45021069   0.00842561
6766.00   1.46010482   0.00806361
6768.00   1.45102489   0.00742889
6770.00   1.43564093   0.00669108
6772.00   1.42924178   0.00634462
6774.00   1.42716873   0.00631141
6776.00   1.42064416   0.00623255
6778.00   1.41093481   0.00627776
6780.00   1.40259790   0.00628997
6782.00   1.39344418   0.00627076
6784.00   1.38732314   0.00625088
6786.00   1.39012933   0.00624810
6788.00   1.40071344   0.00625523
6790.00   1.39959228   0.00625988
6792.00   1.38757408   0.00609496
6794.00   1.38280165   0.00630614
6796.00   1.38331842   0.00707697
6798.00   1.38518524   0.00756755
6800.00   1.38783109   0.00730873
6802.00   1.39129722   0.00660342
6804.00   1.38861096   0.00661714
6806.00   1.38194776   0.00733435
6808.00   1.37230539   0.00743247
6810.00   1.35031736   0.00699387
6812.00   1.34061575   0.00681246
6814.00   1.35711670   0.00732065
6816.00   1.38296092   0.00797102
6818.00   1.38288951   0.00789574
6820.00   1.36119628   0.00707116
6822.00   1.35602009   0.00697145
6824.00   1.35940731   0.00750389
6826.00   1.36066568   0.00767356
6828.00   1.35842490   0.00724048
6830.00   1.35573542   0.00671406
6832.00   1.35548270   0.00686533
6834.00   1.35741460   0.00753709
6836.00   1.35525143   0.00757870
6838.00   1.35065794   0.00703411
6840.00   1.34470856   0.00692561
6842.00   1.33295953   0.00744058
6844.00   1.32529891   0.00784595
6846.00   1.33262014   0.00762466
6848.00   1.35088575   0.00697636
6850.00   1.35376704   0.00662389
6852.00   1.34737289   0.00629452
6854.00   1.34083664   0.00612544
6856.00   1.33059609   0.00615491
6858.00   1.32060719   0.00624599
6860.00   1.31316328   0.00627607
6862.00   1.30664766   0.00634913
6864.00   1.29822290   0.00682133
6866.00   1.27789021   0.00777048
6868.00   1.28320467   0.00824930
6870.00   1.31149936   0.00860531
6872.00   1.33945489   0.00878560
6874.00   1.37004590   0.00879680
6876.00   1.39546335   0.00863818
6878.00   1.38677740   0.00824180
6880.00   1.34293604   0.00740667
6882.00   1.32111418   0.00696033
6884.00   1.29632890   0.00647743
6886.00   1.29011321   0.00658528
6888.00   1.31271911   0.00771072
6890.00   1.34055686   0.00867734
6892.00   1.34797883   0.00844591
6894.00   1.34659255   0.00721455
6896.00   1.33332074   0.00708061
6898.00   1.29183805   0.00794942
6900.00   1.27628207   0.00808903
6902.00   1.28588319   0.00740570
6904.00   1.30216241   0.00677362
6906.00   1.31931818   0.00693082
6908.00   1.34074414   0.00751805
6910.00   1.33144963   0.00805521
6912.00   1.28474438   0.00905441
6914.00   1.26227915   0.00927711
6916.00   1.24645519   0.00881243
6918.00   1.24391544   0.00832581
6920.00   1.26326883   0.00805351
6922.00   1.29522312   0.00786794
6924.00   1.30980182   0.00788204
6926.00   1.31655347   0.00823894
6928.00   1.32116604   0.00826150
6930.00   1.32407856   0.00801840
6932.00   1.31923890   0.00789097
6934.00   1.29750443   0.00797561
6936.00   1.27495182   0.00813171
6938.00   1.28245366   0.00823796
6940.00   1.31772232   0.00845011
6942.00   1.32761204   0.00821045
6944.00   1.32557690   0.00735788
6946.00   1.32135129   0.00675657
6948.00   1.31154847   0.00639276
6950.00   1.30171716   0.00628696
6952.00   1.29976928   0.00665426
6954.00   1.30349851   0.00745662
6956.00   1.29798877   0.00745187
6958.00   1.27802539   0.00649573
6960.00   1.27581930   0.00635623
6962.00   1.29457724   0.00706695
6964.00   1.31178594   0.00774959
6966.00   1.31661081   0.00807342
6968.00   1.31481254   0.00826975
6970.00   1.30030632   0.00843643
6972.00   1.25511360   0.00858683
6974.00   1.24622619   0.00858235
6976.00   1.27133596   0.00849114
6978.00   1.28861547   0.00822709
6980.00   1.28259850   0.00763059
6982.00   1.26814687   0.00682882
6984.00   1.26571858   0.00640056
6986.00   1.26894903   0.00607287
6988.00   1.27228236   0.00628823
6990.00   1.28128016   0.00727614
6992.00   1.28477478   0.00781438
6994.00   1.27631772   0.00778991
6996.00   1.26836348   0.00762121
6998.00   1.28024423   0.00776159
7000.00   1.31031978   0.00809867
7002.00   1.31963050   0.00812477
7004.00   1.31651962   0.00783993
7006.00   1.31345403   0.00774572
7008.00   1.30398285   0.00787726
7010.00   1.29940510   0.00803072
7012.00   1.31381440   0.00807566
7014.00   1.34257734   0.00807808
7016.00   1.35146523   0.00800664
7018.00   1.35412550   0.00792731
7020.00   1.34374571   0.00765208
7022.00   1.31276989   0.00688449
7024.00   1.28393137   0.00637513
7026.00   1.26731658   0.00674227
7028.00   1.25708854   0.00753954
7030.00   1.25475788   0.00790629
7032.00   1.26745546   0.00812167
7034.00   1.26928055   0.00838222
7036.00   1.26076770   0.00887489
7038.00   1.26095986   0.00893494
7040.00   1.27889824   0.00818806
7042.00   1.30275524   0.00700482
7044.00   1.31124961   0.00650024
7046.00   1.31001890   0.00633669
7048.00   1.31069469   0.00657035
7050.00   1.30961621   0.00738017
7052.00   1.30702007   0.00802442
7054.00   1.30098236   0.00874461
7056.00   1.29539657   0.00918088
7058.00   1.29703128   0.00869084
7060.00   1.30622721   0.00710837
7062.00   1.29904079   0.00677212
7064.00   1.27472281   0.00739805
7066.00   1.25967944   0.00783975
7068.00   1.24865019   0.00838246
7070.00   1.24489260   0.00875507
7072.00   1.25438023   0.00870190
7074.00   1.27463663   0.00835071
7076.00   1.28571534   0.00814990
7078.00   1.29558098   0.00780195
7080.00   1.30056250   0.00777570
7082.00   1.30610490   0.00807361
7084.00   1.30031407   0.00839980
7086.00   1.27060854   0.00870658
7088.00   1.22954226   0.00899878
7090.00   1.22061360   0.00903746
7092.00   1.23615694   0.00884930
7094.00   1.24661577   0.00866977
7096.00   1.27053118   0.00841607
7098.00   1.28058434   0.00810452
7100.00   1.26956093   0.00756284
7102.00   1.24770021   0.00705859
7104.00   1.22492850   0.00734986
7106.00   1.18692327   0.00849560
7108.00   1.18501306   0.00847002
7110.00   1.21767664   0.00745390
7112.00   1.24158132   0.00674558
7114.00   1.25952089   0.00639040
7116.00   1.27226603   0.00630274
7118.00   1.27431357   0.00661553
7120.00   1.26596856   0.00733853
7122.00   1.26764667   0.00740043
7124.00   1.27972102   0.00694211
7126.00   1.27982748   0.00667847
7128.00   1.26865387   0.00639476
7130.00   1.25400889   0.00633666
7132.00   1.23791087   0.00677932
7134.00   1.21943748   0.00750339
7136.00   1.21287107   0.00781531
7138.00   1.21274936   0.00794649
7140.00   1.22063506   0.00804622
7142.00   1.24505615   0.00818447
7144.00   1.26224458   0.00808425
7146.00   1.26174164   0.00749313
7148.00   1.25337553   0.00660339
7150.00   1.25373292   0.00624949
7152.00   1.26074147   0.00630312
7154.00   1.25835085   0.00631671
7156.00   1.25382292   0.00639483
7158.00   1.24024355   0.00662307
7160.00   1.20704770   0.00718370
7162.00   1.17390728   0.00767490
7164.00   1.17397583   0.00751209
7166.00   1.19979572   0.00671367
7168.00   1.21605515   0.00645615
7170.00   1.23902941   0.00637830
7172.00   1.25328112   0.00654085
7174.00   1.25980186   0.00717786
7176.00   1.25999463   0.00767103
7178.00   1.25135946   0.00749123
7180.00   1.23310065   0.00681269
7182.00   1.23187399   0.00654757
7184.00   1.24657679   0.00645893
7186.00   1.25218594   0.00639977
7188.00   1.25265145   0.00644041
7190.00   1.25067592   0.00648539
7192.00   1.24717081   0.00647436
7194.00   1.24159253   0.00644513
7196.00   1.23345494   0.00646475
7198.00   1.21043837   0.00631534
7200.00   1.21448851   0.00664500
7202.00   1.24855649   0.00764253
7204.00   1.27260292   0.00811985
7206.00   1.27508211   0.00767581
7208.00   1.26747739   0.00683960
7210.00   1.26005232   0.00685955
7212.00   1.24370623   0.00762710
7214.00   1.24026906   0.00762661
7216.00   1.24593258   0.00708399
7218.00   1.25232100   0.00668152
7220.00   1.25920069   0.00649071
7222.00   1.26745439   0.00640000
7224.00   1.27698445   0.00636695
7226.00   1.28801405   0.00641196
7228.00   1.29931056   0.00653560
7230.00   1.31659102   0.00659180
7232.00   1.32343328   0.00700912
7234.00   1.31675792   0.00800107
7236.00   1.30884373   0.00874077
7238.00   1.30982101   0.00872953
7240.00   1.31525338   0.00824047
7242.00   1.31157482   0.00795927
7244.00   1.29812777   0.00760750
7246.00   1.29205143   0.00731602
7248.00   1.29286361   0.00694840
7250.00   1.29184878   0.00679305
7252.00   1.28352356   0.00713850
7254.00   1.27235174   0.00769807
7256.00   1.27049458   0.00766445
7258.00   1.27983868   0.00710088
7260.00   1.27853775   0.00680367
7262.00   1.27134323   0.00636208
7264.00   1.26303613   0.00627935
7266.00   1.25191724   0.00686784
7268.00   1.24139488   0.00758863
7270.00   1.24102485   0.00770761
7272.00   1.24916101   0.00744637
7274.00   1.25573063   0.00731135
7276.00   1.26804423   0.00706574
7278.00   1.27369201   0.00693669
7280.00   1.27005208   0.00700088
7282.00   1.26417828   0.00708165
7284.00   1.26269865   0.00698522
7286.00   1.26252055   0.00676463
7288.00   1.26506364   0.00666082
7290.00   1.27242398   0.00645820
7292.00   1.27657461   0.00659469
7294.00   1.27611840   0.00722246
7296.00   1.27755857   0.00772078
7298.00   1.28606606   0.00776383
7300.00   1.29899192   0.00755197
7302.00   1.30661702   0.00734076
7304.00   1.31147659   0.00686531
7306.00   1.31632400   0.00666340
7308.00   1.31834102   0.00667977
7310.00   1.32314658   0.00675240
7312.00   1.33578658   0.00686551
7314.00   1.35078907   0.00700575
7316.00   1.35190809   0.00700594
7318.00   1.33694327   0.00688234
7320.00   1.33671427   0.00680892
7322.00   1.34570420   0.00666161
7324.00   1.35330677   0.00664389
7326.00   1.35840654   0.00686752
7328.00   1.36253393   0.00712839
7330.00   1.36622226   0.00710902
7332.00   1.37144876   0.00678708
7334.00   1.36640358   0.00698787
7336.00   1.34784448   0.00777180
7338.00   1.33678794   0.00807315
7340.00   1.33094740   0.00777473
7342.00   1.33106291   0.00743822
7344.00   1.34280276   0.00767114
7346.00   1.36647677   0.00825838
7348.00   1.36833453   0.00823350
7350.00   1.35237920   0.00772890
7352.00   1.34158015   0.00733444
7354.00   1.32814670   0.00685570
7356.00   1.32049346   0.00648670
7358.00   1.32892382   0.00633595
7360.00   1.34653962   0.00638042
7362.00   1.33827150   0.00689936
7364.00   1.29764926   0.00825526
7366.00   1.28769958   0.00856449
7368.00   1.30185628   0.00810780
7370.00   1.31159091   0.00773035
7372.00   1.30878925   0.00770746
7374.00   1.30059326   0.00782588
7376.00   1.29175138   0.00796945
7378.00   1.27947950   0.00826033
7380.00   1.26775467   0.00835990
7382.00   1.25163996   0.00845313
7384.00   1.24191761   0.00831734
7386.00   1.23975706   0.00769203
7388.00   1.24264920   0.00700563
7390.00   1.25052226   0.00709500
7392.00   1.26774275   0.00774504
7394.00   1.26695013   0.00815041
7396.00   1.25016546   0.00879169
7398.00   1.23804247   0.00897586
7400.00   1.22943199   0.00861334
7402.00   1.22112036   0.00813964
7404.00   1.21041322   0.00795465
7406.00   1.19795525   0.00789978
7408.00   1.19604337   0.00763093
7410.00   1.20567727   0.00712245
7412.00   1.21019685   0.00677352
7414.00   1.21571398   0.00637645
7416.00   1.21585631   0.00628244
7418.00   1.20309973   0.00678299
7420.00   1.18386459   0.00757278
7422.00   1.18447649   0.00797700
7424.00   1.20673585   0.00847998
7426.00   1.21237862   0.00838846
7428.00   1.21045661   0.00748900
7430.00   1.20693207   0.00683124
7432.00   1.20188808   0.00679809
7434.00   1.19596684   0.00709239
7436.00   1.19332457   0.00749707
7438.00   1.19363308   0.00827647
7440.00   1.19102657   0.00844517
7442.00   1.18534553   0.00825072
7444.00   1.18239760   0.00794729
7446.00   1.18219709   0.00741240
7448.00   1.18415868   0.00680908
7450.00   1.18874240   0.00646269
7452.00   1.19644678   0.00627504
7454.00   1.20187843   0.00618912
7456.00   1.20521331   0.00635529
7458.00   1.21136594   0.00638803
7460.00   1.21853483   0.00611805
7462.00   1.22920203   0.00608587
7464.00   1.24680018   0.00669598
7466.00   1.26980412   0.00763456
7468.00   1.28607213   0.00845802
7470.00   1.30436099   0.00980960
7472.00   1.30968034   0.01004160
7474.00   1.30172575   0.00927954
7476.00   1.29070854   0.00835979
7478.00   1.27871394   0.00754575
7480.00   1.26517987   0.00669746
7482.00   1.25751996   0.00635079
7484.00   1.25698960   0.00658457
7486.00   1.24913120   0.00670992
7488.00   1.23369682   0.00691947
7490.00   1.22354805   0.00722781
7492.00   1.22234380   0.00777448
7494.00   1.22451627   0.00826777
7496.00   1.22292876   0.00821046
7498.00   1.21969080   0.00761713
7500.00   1.21868491   0.00746149
7502.00   1.22019124   0.00741470
7504.00   1.21972227   0.00758624
7506.00   1.21961308   0.00814420
7508.00   1.21560347   0.00864291
7510.00   1.19963646   0.00868532
7512.00   1.17176998   0.00844365
7514.00   1.16829908   0.00821153
7516.00   1.18592596   0.00784802
7518.00   1.19715083   0.00745023
7520.00   1.20835853   0.00676324
7522.00   1.21609139   0.00631831
7524.00   1.21628630   0.00667745
7526.00   1.21130896   0.00747852
7528.00   1.21019709   0.00769028
7530.00   1.21419883   0.00771374
7532.00   1.20863152   0.00753237
7534.00   1.19123316   0.00687935
7536.00   1.17840016   0.00639359
7538.00   1.17577207   0.00645737
7540.00   1.17839372   0.00674415
7542.00   1.18128693   0.00667733
7544.00   1.18935823   0.00628401
7546.00   1.19068491   0.00629820
7548.00   1.18363893   0.00646423
7550.00   1.18326783   0.00686917
7552.00   1.19127822   0.00759499
7554.00   1.20451534   0.00835631
7556.00   1.22307694   0.00886770
7558.00   1.25285614   0.00932843
7560.00   1.25879645   0.00948598
7562.00   1.25134337   0.00942669
7564.00   1.23264301   0.00918872
7566.00   1.19011319   0.00865711
7568.00   1.15150940   0.00800861
7570.00   1.14477897   0.00738860
7572.00   1.15884924   0.00667667
7574.00   1.16145933   0.00646264
7576.00   1.16331935   0.00682963
7578.00   1.16483843   0.00702626
7580.00   1.17018080   0.00734647
7582.00   1.16865420   0.00744498
7584.00   1.15221345   0.00700600
7586.00   1.12658513   0.00619553
7588.00   1.11014354   0.00602053
7590.00   1.10062063   0.00624665
7592.00   1.08349943   0.00658962
7594.00   1.05076778   0.00693664
7596.00   1.03567064   0.00770203
7598.00   1.05264223   0.00905292
7600.00   1.08382857   0.01044826
7602.00   1.09875989   0.01124576
7604.00   1.10797358   0.01188743
7606.00   1.11692727   0.01207052
7608.00   1.12236607   0.01179747
7610.00   1.12891066   0.01141290
7612.00   1.14054966   0.01088081
7614.00   1.14893448   0.01020252
7616.00   1.14347315   0.00940248
7618.00   1.12844801   0.00830137
7620.00   1.10570765   0.00772043
7622.00   1.05535376   0.00756428
7624.00   1.03717411   0.00760681
7626.00   1.05688369   0.00804907
7628.00   1.08133042   0.00846758
7630.00   1.08883071   0.00857440
7632.00   1.09014189   0.00852719
7634.00   1.08583617   0.00843692
7636.00   1.06593227   0.00820234
7638.00   1.06231272   0.00801568
7640.00   1.07310677   0.00780248
7642.00   1.08407712   0.00764039
7644.00   1.08819473   0.00753665
7646.00   1.09089899   0.00750672
7648.00   1.10247874   0.00771335
7650.00   1.12425768   0.00827918
7652.00   1.13834071   0.00849680
7654.00   1.15711796   0.00858788
7656.00   1.16081727   0.00856527
7658.00   1.13542652   0.00829252
7660.00   1.10322964   0.00799289
7662.00   1.10627568   0.00825838
7664.00   1.13909364   0.00918612
7666.00   1.14702487   0.00900784
7668.00   1.14258897   0.00759105
7670.00   1.13921547   0.00673753
7672.00   1.13643193   0.00684828
7674.00   1.13332188   0.00724192
7676.00   1.13045514   0.00743627
7678.00   1.12768841   0.00769869
7680.00   1.12402534   0.00755150
7682.00   1.11494696   0.00673239
7684.00   1.11569750   0.00647556
7686.00   1.12760580   0.00680942
7688.00   1.14120090   0.00724517
7690.00   1.15449286   0.00761043
7692.00   1.16841662   0.00799228
7694.00   1.15805566   0.00801988
7696.00   1.10663784   0.00738100
7698.00   1.09825981   0.00755411
7700.00   1.12651086   0.00852662
7702.00   1.15161157   0.00918697
7704.00   1.16148472   0.00930327
7706.00   1.16487324   0.00913491
7708.00   1.16308355   0.00879114
7710.00   1.15092194   0.00788228
7712.00   1.14630568   0.00757957
7714.00   1.14353013   0.00781419
7716.00   1.14347553   0.00790377
7718.00   1.14803469   0.00777436
7720.00   1.15372252   0.00754446
7722.00   1.15498769   0.00723958
7724.00   1.15498376   0.00675901
7726.00   1.14882040   0.00651510
7728.00   1.13046622   0.00643913
7730.00   1.12287581   0.00640371
7732.00   1.13126826   0.00646107
7734.00   1.13901150   0.00652600
7736.00   1.13159418   0.00648415
7738.00   1.11521590   0.00636672
7740.00   1.09668756   0.00644031
7742.00   1.07376623   0.00642197
7744.00   1.04635632   0.00691220
7746.00   1.01125836   0.00823685
7748.00   0.97648162   0.00898498
7750.00   0.94598913   0.00849322
7752.00   0.91758591   0.00715400
7754.00   0.89218122   0.00654868
7756.00   0.86492825   0.00632698
7758.00   0.85098231   0.00608532
7760.00   0.84614074   0.00599107
7762.00   0.85042751   0.00594690
7764.00   0.86447620   0.00585426
7766.00   0.88734627   0.00584706
7768.00   0.91736162   0.00626479
7770.00   0.96401155   0.00721424
7772.00   0.99039763   0.00742629
7774.00   1.00374651   0.00711965
7776.00   1.01580381   0.00692451
7778.00   1.02229357   0.00685517
7780.00   1.03121042   0.00688061
7782.00   1.05881500   0.00711616
7784.00   1.10480297   0.00760693
7786.00   1.12594056   0.00761571
7788.00   1.13115585   0.00707843
7790.00   1.13569546   0.00692512
7792.00   1.13701391   0.00720248
7794.00   1.13638878   0.00754908
7796.00   1.13466501   0.00779357
7798.00   1.13100576   0.00803668
7800.00   1.13479233   0.00798789
7802.00   1.14626133   0.00751219
7804.00   1.15432501   0.00735009
7806.00   1.16129673   0.00728146
7808.00   1.16755605   0.00748089
7810.00   1.17423046   0.00821303
7812.00   1.18011189   0.00911637
7814.00   1.17880332   0.00914158
7816.00   1.16736233   0.00805338
7818.00   1.16379046   0.00803726
7820.00   1.16978133   0.00902601
7822.00   1.16588974   0.00939723
7824.00   1.14292812   0.00870941
7826.00   1.11395192   0.00750764
7828.00   1.10121083   0.00686928
7830.00   1.09702921   0.00645545
7832.00   1.09640086   0.00624483
7834.00   1.10530102   0.00631203
7836.00   1.11064029   0.00655358
7838.00   1.11328900   0.00711218
7840.00   1.11291444   0.00762750
7842.00   1.10563421   0.00772670
7844.00   1.09022117   0.00756169
7846.00   1.09054184   0.00746073
7848.00   1.10948241   0.00722452
7850.00   1.11367357   0.00713235
7852.00   1.10306025   0.00722955
7854.00   1.09045708   0.00731138
7856.00   1.08283818   0.00724361
7858.00   1.07659912   0.00709269
7860.00   1.07353222   0.00695943
7862.00   1.07625103   0.00675133
7864.00   1.07412994   0.00665263
7866.00   1.06551147   0.00663983
7868.00   1.06160605   0.00666640
7870.00   1.06893885   0.00673822
7872.00   1.08138955   0.00683731
7874.00   1.08461940   0.00685748
7876.00   1.08263457   0.00675838
7878.00   1.08026707   0.00683657
7880.00   1.07227850   0.00704804
7882.00   1.06939650   0.00725170
7884.00   1.07542086   0.00747087
7886.00   1.08411229   0.00765713
7888.00   1.08650732   0.00769045
7890.00   1.08478689   0.00761490
7892.00   1.08657014   0.00747284
7894.00   1.09072733   0.00717149
7896.00   1.09344935   0.00692563
7898.00   1.09647036   0.00668670
7900.00   1.09673929   0.00653129
7902.00   1.08904791   0.00658586
7904.00   1.07396150   0.00681377
7906.00   1.07126093   0.00697853
7908.00   1.08056748   0.00720987
7910.00   1.08226168   0.00733964
7912.00   1.07829869   0.00739503
7914.00   1.07288039   0.00739877
7916.00   1.06673980   0.00733939
7918.00   1.05967796   0.00722541
7920.00   1.05905449   0.00718806
7922.00   1.06524539   0.00724772
7924.00   1.06835294   0.00718508
7926.00   1.07535505   0.00690888
7928.00   1.07462835   0.00681355
7930.00   1.05829024   0.00715087
7932.00   1.03570759   0.00760658
7934.00   1.02837110   0.00758423
7936.00   1.02849865   0.00712434
7938.00   1.03457677   0.00698934
7940.00   1.05694783   0.00678439
7942.00   1.06710124   0.00700465
7944.00   1.05854905   0.00792108
7946.00   1.04408753   0.00881886
7948.00   1.03734136   0.00897787
7950.00   1.03156483   0.00867217
7952.00   1.03322458   0.00848117
7954.00   1.04310751   0.00811878
7956.00   1.05249119   0.00786916
7958.00   1.06073689   0.00775548
7960.00   1.07164621   0.00767268
7962.00   1.09095752   0.00753294
7964.00   1.11765492   0.00736913
7966.00   1.12232220   0.00731134
7968.00   1.10513675   0.00716654
7970.00   1.09749103   0.00742247
7972.00   1.09508240   0.00823248
7974.00   1.09191871   0.00881481
7976.00   1.08462608   0.00890438
7978.00   1.07566214   0.00871741
7980.00   1.07201374   0.00837619
7982.00   1.06698656   0.00738694
7984.00   1.07470489   0.00712495
7986.00   1.10427523   0.00754176
7988.00   1.11940563   0.00780378
7990.00   1.10842657   0.00770321
7992.00   1.08514333   0.00749463
7994.00   1.06685722   0.00748287
7996.00   1.04133725   0.00759220
7998.00   1.03298402   0.00763837
8000.00   1.03820813   0.00777793
8002.00   1.04546857   0.00771824
8004.00   1.05817366   0.00732720
8006.00   1.07033300   0.00686026
8008.00   1.07094133   0.00667706
8010.00   1.06168246   0.00665945
8012.00   1.06544137   0.00669121
8014.00   1.07935667   0.00677691
8016.00   1.08926380   0.00701339
8018.00   1.09797406   0.00747248
8020.00   1.10382056   0.00789806
8022.00   1.10451746   0.00818269
8024.00   1.10112584   0.00840328
8026.00   1.09738469   0.00828370
8028.00   1.09351480   0.00770412
8030.00   1.08459914   0.00730853
8032.00   1.06556058   0.00689892
8034.00   1.05262864   0.00661155
8036.00   1.05336034   0.00657532
8038.00   1.06194377   0.00669475
8040.00   1.06987226   0.00668751
8042.00   1.08802450   0.00656729
8044.00   1.08866227   0.00665589
8046.00   1.07694721   0.00683387
8048.00   1.06159425   0.00714695
8050.00   1.03804803   0.00774730
8052.00   1.01504016   0.00830907
8054.00   1.01373959   0.00828674
8056.00   1.03040051   0.00769136
8058.00   1.04140019   0.00762885
8060.00   1.06130385   0.00783240
8062.00   1.06863880   0.00808490
8064.00   1.06233275   0.00848892
8066.00   1.04812324   0.00883675
8068.00   1.02701700   0.00885058
8070.00   0.99492031   0.00858287
8072.00   0.98687130   0.00882111
8074.00   0.99625343   0.00982926
8076.00   1.00751829   0.00986701
8078.00   1.03106546   0.00878161
8080.00   1.04827666   0.00755179
8082.00   1.04341292   0.00704986
8084.00   1.02527237   0.00694975
8086.00   1.02411342   0.00672575
8088.00   1.03343308   0.00654174
8090.00   1.03970015   0.00649659
8092.00   1.05303931   0.00663134
8094.00   1.05583405   0.00677518
8096.00   1.03516436   0.00691961
8098.00   1.00558066   0.00704558
8100.00   1.00405777   0.00696697
8102.00   1.02744603   0.00651943
8104.00   1.03398550   0.00659098
8106.00   1.03914607   0.00699036
8108.00   1.03475463   0.00745635
8110.00   1.01313710   0.00812464
8112.00   0.98860639   0.00869354
8114.00   0.98389190   0.00865732
8116.00   0.99260658   0.00801356
8118.00   0.99753648   0.00806577
8120.00   1.00841904   0.00872299
8122.00   1.01225340   0.00897762
8124.00   1.00429821   0.00892905
8126.00   0.99825394   0.00865489
8128.00   1.00786495   0.00802992
8130.00   1.02832806   0.00692748
8132.00   1.03670001   0.00652904
8134.00   1.03493023   0.00669605
8136.00   1.04139745   0.00689666
8138.00   1.05902827   0.00732197
8140.00   1.07116234   0.00771617
8142.00   1.06695044   0.00803368
8144.00   1.05359161   0.00829148
8146.00   1.05025315   0.00810843
8148.00   1.05756545   0.00716917
8150.00   1.05042624   0.00687737
8152.00   1.03059471   0.00694866
8154.00   1.01254320   0.00720151
8156.00   0.99636775   0.00765480
8158.00   0.98418254   0.00819962
8160.00   0.98965144   0.00858031
8162.00   1.01559711   0.00908872
8164.00   1.02751291   0.00896368
8166.00   1.04049969   0.00799463
8168.00   1.04134309   0.00736472
8170.00   1.02433729   0.00705857
8172.00   1.00160253   0.00724737
8174.00   0.98634261   0.00850397
8176.00   0.96993047   0.01066757
8178.00   0.97293204   0.01078061
8180.00   1.00862384   0.00891016
8182.00   1.01551282   0.00802419
8184.00   0.98764837   0.00835309
8186.00   0.95842075   0.00891275
8188.00   0.95136768   0.00916212
8190.00   0.95531595   0.00937166
8192.00   0.95898175   0.00970314
8194.00   0.97946358   0.01027752
8196.00   0.97368777   0.01049001
8198.00   0.93181634   0.01043648
8200.00   0.90440273   0.01027040
8202.00   0.91830730   0.01002486
8204.00   0.95318198   0.00967836
8206.00   0.96924579   0.00932862
8208.00   0.98201418   0.00884527
8210.00   0.98794627   0.00853274
8212.00   0.98113257   0.00843601
8214.00   0.98095864   0.00821983
8216.00   0.99566376   0.00764814
8218.00   1.01326573   0.00702325
8220.00   1.01367784   0.00709705
8222.00   0.99862957   0.00785805
8224.00   0.99775517   0.00796391
8226.00   1.00526190   0.00773134
8228.00   1.01099873   0.00750272
8230.00   1.01475894   0.00722408
8232.00   1.01829898   0.00695740
8234.00   1.02313721   0.00683558
8236.00   1.02963161   0.00681240
8238.00   1.02890027   0.00685769
8240.00   1.01986516   0.00710751
8242.00   1.01503289   0.00715856
8244.00   1.01346588   0.00697356
8246.00   1.01243865   0.00680529
8248.00   1.01087213   0.00682866
8250.00   1.00933135   0.00695473
8252.00   1.00622606   0.00705946
8254.00   0.99915671   0.00731254
8256.00   0.99785459   0.00729186
8258.00   1.00374293   0.00678389
8260.00   1.00661540   0.00661449
8262.00   1.00189006   0.00732336
8264.00   0.99361461   0.00826913
8266.00   0.98861670   0.00838219
8268.00   0.98491532   0.00781708
8270.00   0.98039389   0.00767295
8272.00   0.97409588   0.00754374
8274.00   0.97054780   0.00766726
8276.00   0.96851122   0.00826358
8278.00   0.97045910   0.00886739
8280.00   0.98387051   0.00883096
8282.00   1.01302373   0.00827662
8284.00   1.01813006   0.00804354
8286.00   0.99980968   0.00783112
8288.00   0.99410391   0.00777209
8290.00   1.00174844   0.00796294
8292.00   1.01361752   0.00816550
8294.00   1.02512586   0.00813772
8296.00   1.03947914   0.00795879
8298.00   1.04373896   0.00802993
8300.00   1.03674316   0.00818312
8302.00   1.03591084   0.00851298
8304.00   1.04251671   0.00929623
8306.00   1.04509246   0.00972578
8308.00   1.03782356   0.00933403
8310.00   1.02398634   0.00837147
8312.00   1.00462914   0.00769653
8314.00   0.96784830   0.00679165
8316.00   0.95219326   0.00635385
8318.00   0.95108235   0.00645612
8320.00   0.95383662   0.00661329
8322.00   0.95990831   0.00672528
8324.00   0.96832258   0.00685787
8326.00   0.97023416   0.00692916
8328.00   0.96749383   0.00689179
8330.00   0.96636599   0.00707398
8332.00   0.95982003   0.00742637
8334.00   0.96269405   0.00776123
8336.00   0.98114038   0.00810768
8338.00   1.00274527   0.00841777
8340.00   1.01313221   0.00858215
8342.00   1.02151036   0.00860988
8344.00   1.00772727   0.00880143
8346.00   0.95900369   0.00927172
8348.00   0.93439919   0.00935183
8350.00   0.93180901   0.00900754
8352.00   0.93906540   0.00850559
8354.00   0.95280927   0.00798958
8356.00   0.97607762   0.00733888
8358.00   0.98111987   0.00710919
8360.00   0.97567230   0.00740929
8362.00   0.96509993   0.00739922
8364.00   0.94419640   0.00718805
8366.00   0.92324704   0.00695780
8368.00   0.90593350   0.00675605
8370.00   0.89041114   0.00656654
8372.00   0.88166708   0.00654876
8374.00   0.88709480   0.00669083
8376.00   0.87553525   0.00684500
8378.00   0.85511822   0.00712774
8380.00   0.82871920   0.00732053
8382.00   0.79421622   0.00744154
8384.00   0.75547689   0.00744996
8386.00   0.72279233   0.00712200
8388.00   0.69272417   0.00625586
8390.00   0.66257107   0.00593233
8392.00   0.63421798   0.00584607
8394.00   0.60456717   0.00606840
8396.00   0.57501566   0.00678465
8398.00   0.54299217   0.00746678
8400.00   0.50391454   0.00767920
8402.00   0.45807409   0.00770560
8404.00   0.41883665   0.00721233
8406.00   0.37736174   0.00545508
8408.00   0.34766328   0.00445934
8410.00   0.33362913   0.00466680
8412.00   0.32089669   0.00518589
8414.00   0.29908288   0.00561741
8416.00   0.27333480   0.00614536
8418.00   0.25278851   0.00610539
8420.00   0.23364446   0.00538341
8422.00   0.21803345   0.00508227
8424.00   0.20591907   0.00500848
8426.00   0.19604792   0.00507025
8428.00   0.18862256   0.00534968
8430.00   0.18314350   0.00570227
8432.00   0.17631917   0.00558968
8434.00   0.16681021   0.00499360
8436.00   0.16392030   0.00462488
8438.00   0.16756937   0.00422831
8440.00   0.17013955   0.00393932
8442.00   0.16889720   0.00379640
8444.00   0.16820008   0.00380167
8446.00   0.17469992   0.00397189
8448.00   0.18805231   0.00429241
8450.00   0.19623838   0.00467931
8452.00   0.20367908   0.00544072
8454.00   0.20841821   0.00563682
8456.00   0.20586829   0.00504555
8458.00   0.20629883   0.00433380
8460.00   0.22326854   0.00448824
8462.00   0.25403720   0.00517025
8464.00   0.26340801   0.00531713
8466.00   0.25310624   0.00524340
8468.00   0.25452706   0.00514907
8470.00   0.26230538   0.00484024
8472.00   0.27555794   0.00468527
8474.00   0.29774266   0.00507094
8476.00   0.32652393   0.00570355
8478.00   0.34036294   0.00567735
8480.00   0.33674437   0.00494742
8482.00   0.34919402   0.00472046
8484.00   0.37328085   0.00481712
8486.00   0.39709756   0.00495575
8488.00   0.41773784   0.00507751
8490.00   0.43721697   0.00521630
8492.00   0.45421773   0.00531438
8494.00   0.46596169   0.00534003
8496.00   0.48542601   0.00551119
8498.00   0.50799012   0.00581950
8500.00   0.53563219   0.00606660
8502.00   0.56932545   0.00615100
8504.00   0.60721397   0.00628763
8506.00   0.64742035   0.00683082
8508.00   0.69268799   0.00778855
8510.00   0.73129946   0.00781593
8512.00   0.76299596   0.00691570
8514.00   0.79995048   0.00641035
8516.00   0.84169811   0.00631052
8518.00   0.88616127   0.00642046
8520.00   0.93339336   0.00669642
8522.00   0.98401248   0.00715999
8524.00   1.02798927   0.00739679
8526.00   1.06878209   0.00753845
8528.00   1.10611594   0.00765330
8530.00   1.14130402   0.00774180
8532.00   1.17118001   0.00777434
8534.00   1.19426715   0.00771304
8536.00   1.21142220   0.00758807
8538.00   1.22256243   0.00755627
8540.00   1.22909117   0.00738214
8542.00   1.22637808   0.00767138
8544.00   1.20974362   0.00827057
8546.00   1.19564259   0.00899162
8548.00   1.19398057   0.01002604
8550.00   1.19140947   0.01096300
8552.00   1.15985763   0.01093532
8554.00   1.09606266   0.00998046
8556.00   1.06178308   0.00951935
8558.00   1.04944944   0.00921036
8560.00   1.02562678   0.00881496
8562.00   0.98499602   0.00824140
8564.00   0.94069511   0.00764633
8566.00   0.90516341   0.00726887
8568.00   0.87336040   0.00707187
8570.00   0.84308171   0.00682037
8572.00   0.81488532   0.00659454
8574.00   0.78925097   0.00639465
8576.00   0.76807451   0.00620640
8578.00   0.74675941   0.00607213
8580.00   0.72118729   0.00605019
8582.00   0.69321901   0.00612099
8584.00   0.66936731   0.00607992
8586.00   0.64312804   0.00595533
8588.00   0.62844098   0.00587877
8590.00   0.62597561   0.00578564
8592.00   0.62559181   0.00576636
8594.00   0.62409657   0.00589732
8596.00   0.62324589   0.00610228
8598.00   0.62015343   0.00616976
8600.00   0.61300772   0.00615077
8602.00   0.61194754   0.00615152
8604.00   0.61244595   0.00611674
8606.00   0.61873573   0.00611283
8608.00   0.63250136   0.00615321
8610.00   0.65121377   0.00622025
8612.00   0.67177463   0.00627551
8614.00   0.69919825   0.00620561
8616.00   0.71498650   0.00663068
8618.00   0.71707511   0.00761297
8620.00   0.72881794   0.00815889
8622.00   0.74976349   0.00833249
8624.00   0.77742386   0.00832937
8626.00   0.81325477   0.00820804
8628.00   0.85878706   0.00788148
8630.00   0.89401525   0.00784523
8632.00   0.92167234   0.00807613
8634.00   0.95384878   0.00814367
8636.00   0.98877245   0.00807008
8638.00   1.02570236   0.00798601
8640.00   1.06370950   0.00794350
8642.00   1.10332882   0.00791637
8644.00   1.15097237   0.00802087
8646.00   1.20983875   0.00820540
8648.00   1.26195502   0.00848857
8650.00   1.31390345   0.00898109
8652.00   1.36042821   0.00933671
8654.00   1.39508867   0.00930521
8656.00   1.42557466   0.00919561
8658.00   1.47510099   0.00984472
8660.00   1.54320848   0.01124449
8662.00   1.59836030   0.01182373
8664.00   1.65345562   0.01229171
8666.00   1.69880700   0.01219695
8668.00   1.72995222   0.01097236
8670.00   1.75493097   0.00942533
8672.00   1.78552175   0.00962624
8674.00   1.81824589   0.01114546
8676.00   1.84549010   0.01173064
8678.00   1.86897111   0.01237585
8680.00   1.89078987   0.01237995
8682.00   1.91146338   0.01142016
8684.00   1.92936933   0.01025899
8686.00   1.94337392   0.00982714
8688.00   1.95417905   0.00981774
8690.00   1.95952690   0.00973889
8692.00   1.96490312   0.00965448
8694.00   1.95518541   0.00989725
8696.00   1.92297447   0.01059053
8698.00   1.89420068   0.01117815
8700.00   1.88099217   0.01149567
8702.00   1.87667894   0.01165256
8704.00   1.88565385   0.01132279
8706.00   1.92224920   0.00987317
8708.00   1.93317080   0.00963092
8710.00   1.92685282   0.01046430
8712.00   1.92064083   0.01108583
8714.00   1.92428422   0.01132624
8716.00   1.92564070   0.01134721
8718.00   1.89889157   0.01090977
8720.00   1.84242523   0.00957219
8722.00   1.80459893   0.00929324
8724.00   1.77014744   0.00962814
8726.00   1.74047852   0.01029066
8728.00   1.71767390   0.01143376
8730.00   1.69755137   0.01256750
8732.00   1.67373788   0.01320812
8734.00   1.64732432   0.01370968
8736.00   1.62903047   0.01357209
8738.00   1.61258936   0.01250040
8740.00   1.60669744   0.01181538
8742.00   1.61377633   0.01157750
8744.00   1.62558234   0.01136549
8746.00   1.63788736   0.01080059
8748.00   1.65343630   0.00998580
8750.00   1.65650105   0.00989039
8752.00   1.65262771   0.01056740
8754.00   1.64116943   0.01084105
8756.00   1.61964822   0.01073488
8758.00   1.59478676   0.01089971
8760.00   1.56631744   0.01187269
8762.00   1.53584933   0.01305520
8764.00   1.52064610   0.01288461
8766.00   1.51819384   0.01091430
8768.00   1.51558948   0.01051778
8770.00   1.52839613   0.01144443
8772.00   1.52400124   0.01184392
8774.00   1.48885083   0.01125443
8776.00   1.44196880   0.01027026
8778.00   1.41402078   0.00980446
8780.00   1.39549541   0.00956590
8782.00   1.37435997   0.00943794
8784.00   1.35077298   0.00935614
8786.00   1.33531475   0.00964689
8788.00   1.33720136   0.01069112
8790.00   1.33595777   0.01150981
8792.00   1.30423295   0.01105918
8794.00   1.24722481   0.00943539
8796.00   1.22140932   0.00901510
8798.00   1.21289325   0.00965190
8800.00   1.20744872   0.00966440
8802.00   1.21382642   0.00907217
8804.00   1.21660233   0.00843690
8806.00   1.20267022   0.00815070
8808.00   1.17865515   0.00804779
8810.00   1.16338587   0.00805394
8812.00   1.14889336   0.00814975
8814.00   1.13994861   0.00848227
8816.00   1.14121544   0.00920882
8818.00   1.13732636   0.00972319
8820.00   1.12238669   0.00978488
8822.00   1.10091531   0.00965963
8824.00   1.07690966   0.00986642
8826.00   1.04462457   0.01045828
8828.00   1.01985514   0.01048098
8830.00   0.99591756   0.01005761
8832.00   0.97833163   0.00965095
8834.00   0.96941125   0.00917894
8836.00   0.96525657   0.00882336
8838.00   0.96095932   0.00920059
8840.00   0.96156156   0.01039110
8842.00   0.95087415   0.01035003
8844.00   0.92512500   0.00923765
8846.00   0.91102630   0.00845186
8848.00   0.90523160   0.00783851
8850.00   0.90982717   0.00764302
8852.00   0.93341529   0.00847481
8854.00   0.97611952   0.01005467
8856.00   0.99263227   0.01020791
8858.00   0.99400359   0.00917953
8860.00   0.99290395   0.00869971
8862.00   0.98184359   0.00857350
8864.00   0.97340155   0.00860106
8866.00   0.97790337   0.00879227
8868.00   0.98902667   0.00911558
8870.00   0.98548418   0.00905771
8872.00   0.96855295   0.00857230
8874.00   0.95902985   0.00840178
8876.00   0.95098662   0.00835231
8878.00   0.94528472   0.00843344
8880.00   0.94607633   0.00852376
8882.00   0.94745523   0.00879626
8884.00   0.93136364   0.00979602
8886.00   0.89409041   0.01188357
8888.00   0.87839943   0.01204034
8890.00   0.87627631   0.01066557
8892.00   0.87331986   0.00940974
8894.00   0.87072635   0.00833305
8896.00   0.86638337   0.00746067
8898.00   0.85270488   0.00745703
8900.00   0.82861209   0.00836730
8902.00   0.82047844   0.00851619
8904.00   0.82539302   0.00838313
8906.00   0.82646817   0.00819838
8908.00   0.82617837   0.00753081
8910.00   0.82353455   0.00726295
8912.00   0.81555533   0.00845623
8914.00   0.80309910   0.01036668
8916.00   0.79625249   0.01100294
8918.00   0.79291552   0.01126602
8920.00   0.78887844   0.01099805
8922.00   0.78325927   0.00976900
8924.00   0.78058028   0.00849628
8926.00   0.78089297   0.00777923
8928.00   0.78494722   0.00742083
8930.00   0.80411392   0.00763966
8932.00   0.85272706   0.00863476
8934.00   0.86847746   0.00930229
8936.00   0.85993654   0.01005161
8938.00   0.85342145   0.01063935
8940.00   0.85399342   0.01116263
8942.00   0.85699946   0.01148949
8944.00   0.86313170   0.01116444
8946.00   0.87764150   0.01004518
8948.00   0.87583941   0.00931413
8950.00   0.85258681   0.00833471
8952.00   0.84539217   0.00793191
8954.00   0.86354655   0.00853727
8956.00   0.88473099   0.00929025
8958.00   0.88563114   0.00939155
8960.00   0.87592524   0.00919098
8962.00   0.85882348   0.00891762
8964.00   0.81793410   0.00827217
8966.00   0.80102021   0.00787809
8968.00   0.80852532   0.00773084
8970.00   0.82248557   0.00769727
8972.00   0.83357304   0.00768724
8974.00   0.84670848   0.00774384
8976.00   0.85206032   0.00801521
8978.00   0.85061610   0.00859347
8980.00   0.85020018   0.00893380
8982.00   0.84910429   0.00924452
8984.00   0.84692347   0.00936495
8986.00   0.84295523   0.00914145
8988.00   0.83801132   0.00871725
8990.00   0.83540273   0.00862164
8992.00   0.83478588   0.00878810
8994.00   0.83301491   0.00878634
8996.00   0.83105654   0.00869347
8998.00   0.82883066   0.00865324
9000.00   0.82593781   0.00866143
9002.00   0.82307684   0.00873804
9004.00   0.82138044   0.00897587
9006.00   0.81933254   0.00938260
9008.00   0.82228053   0.00966744
9010.00   0.82798064   0.01015063
9012.00   0.83814162   0.01015826
9014.00   0.85671461   0.00938313
9016.00   0.87493360   0.00851251
9018.00   0.88361800   0.00854565
9020.00   0.88693064   0.00920633
9022.00   0.88460124   0.00912565
9024.00   0.86702079   0.00843841
9026.00   0.86483067   0.00810375
9028.00   0.88327509   0.00800439
9030.00   0.89629245   0.00808146
9032.00   0.88924032   0.00835477
9034.00   0.87000012   0.00879014
9036.00   0.84042662   0.00915551
9038.00   0.77509922   0.00981371
9040.00   0.75619346   0.00982607
9042.00   0.78299302   0.00900227
9044.00   0.80013907   0.00847413
9046.00   0.78781337   0.00897111
9048.00   0.76345444   0.00974235
9050.00   0.74715555   0.00945560
9052.00   0.72956717   0.00803971
9054.00   0.71764368   0.00746765
9056.00   0.70972377   0.00739433
9058.00   0.70454168   0.00735929
9060.00   0.70556033   0.00736107
9062.00   0.70621401   0.00739699
9064.00   0.69413078   0.00733253
9066.00   0.67007601   0.00715150
9068.00   0.65933156   0.00726210
9070.00   0.66062808   0.00735303
9072.00   0.65339363   0.00794220
9074.00   0.63279408   0.00933320
9076.00   0.61467445   0.01038206
9078.00   0.61239940   0.01035436
9080.00   0.62011826   0.00961436
9082.00   0.63155729   0.00911919
9084.00   0.65595269   0.00833776
9086.00   0.67043316   0.00787139
9088.00   0.67819965   0.00771426
9090.00   0.68294054   0.00769775
9092.00   0.68480468   0.00779114
9094.00   0.68410891   0.00799328
9096.00   0.68837315   0.00802025
9098.00   0.69171023   0.00786821
9100.00   0.70488364   0.00789651
9102.00   0.72616374   0.00803642
9104.00   0.75196099   0.00819345
9106.00   0.78443599   0.00837452
9108.00   0.81965351   0.00855302
9110.00   0.84581351   0.00862086
9112.00   0.86978734   0.00859733
9114.00   0.88163787   0.00859198
9116.00   0.88072485   0.00853307
9118.00   0.87781942   0.00853191
9120.00   0.87395889   0.00866210
9122.00   0.86642772   0.00876763
9124.00   0.85164267   0.00862717
9126.00   0.82760668   0.00825402
9128.00   0.81884384   0.00815746
9130.00   0.82175332   0.00823777
9132.00   0.82301164   0.00831493
9134.00   0.82498986   0.00820759
9136.00   0.82648122   0.00839619
9138.00   0.82498336   0.00944737
9140.00   0.82145631   0.01094634
9142.00   0.82373476   0.01096002
9144.00   0.83350420   0.00944122
9146.00   0.83658135   0.00876916
9148.00   0.83427221   0.00865551
9150.00   0.83158362   0.00869159
9152.00   0.83204269   0.00877621
9154.00   0.83256155   0.00894964
9156.00   0.82356870   0.00899524
9158.00   0.79872680   0.00902480
9160.00   0.79236430   0.00892867
9162.00   0.80061942   0.00865262
9164.00   0.80585814   0.00842280
9166.00   0.80540746   0.00824946
9168.00   0.80203348   0.00815077
9170.00   0.79428017   0.00826799
9172.00   0.77597785   0.00865365
9174.00   0.77949518   0.00875292
9176.00   0.80935097   0.00865163
9178.00   0.82216972   0.00862580
9180.00   0.81513870   0.00875356
9182.00   0.80004638   0.00883262
9184.00   0.78507704   0.00858786
9186.00   0.76626432   0.00799900
9188.00   0.74655920   0.00813349
9190.00   0.72002333   0.00912264
9192.00   0.70227200   0.00937744
9194.00   0.69369560   0.00886416
9196.00   0.68706340   0.00838196
9198.00   0.67671514   0.00856005
9200.00   0.66562277   0.00906817
9202.00   0.66617244   0.00918236
9204.00   0.67952150   0.00915993
9206.00   0.68764228   0.00901397
9208.00   0.69814545   0.00860106
9210.00   0.70293719   0.00825872
9212.00   0.69515347   0.00814760
9214.00   0.68226826   0.00815287
9216.00   0.68506426   0.00811913
9218.00   0.70055306   0.00810035
9220.00   0.71073014   0.00811296
9222.00   0.71828187   0.00813663
9224.00   0.73097301   0.00821456
9226.00   0.75099242   0.00834775
9228.00   0.77461261   0.00853072
9230.00   0.79778779   0.00877705
9232.00   0.82422090   0.00911642
9234.00   0.84267545   0.00931999
9236.00   0.85697269   0.00949649
9238.00   0.86628485   0.00955545
9240.00   0.87172925   0.00947993
9242.00   0.87101883   0.00932994
9244.00   0.85939294   0.00913541
9246.00   0.83686429   0.00885905
9248.00   0.82999742   0.00872337
9250.00   0.83176565   0.00867309
9252.00   0.83635581   0.00866463
9254.00   0.84770024   0.00874609
9256.00   0.85884285   0.00881920
9258.00   0.86504644   0.00881021
9260.00   0.86920702   0.00876659
9262.00   0.87769783   0.00883891
9264.00   0.89115494   0.00897686
9266.00   0.89989167   0.00916231
9268.00   0.91258579   0.00949813
9270.00   0.91294646   0.00970496
9272.00   0.89265144   0.00970206
9274.00   0.86142784   0.00957940
9276.00   0.83704817   0.00942944
9278.00   0.80222148   0.00909046
9280.00   0.80029875   0.00906655
9282.00   0.83626342   0.00927916
9284.00   0.85731643   0.00951393
9286.00   0.85855454   0.00980002
9288.00   0.85120666   0.01008042
9290.00   0.83942157   0.01023549
9292.00   0.81481606   0.01029486
9294.00   0.82019240   0.01043172
9296.00   0.86043030   0.01060545
9298.00   0.87835717   0.01076610
9300.00   0.87680984   0.01056412
9302.00   0.86600596   0.01082135
9304.00   0.84948617   0.01227155
9306.00   0.82494080   0.01432038
9308.00   0.80453968   0.01560203
9310.00   0.77385294   0.01724869
9312.00   0.76622015   0.01746243
9314.00   0.78534323   0.01588546
9316.00   0.80309230   0.01444844
9318.00   0.80782062   0.01448737
9320.00   0.80661833   0.01519612
9322.00   0.79990947   0.01519917
9324.00   0.78175473   0.01509565
9326.00   0.77180713   0.01454502
9328.00   0.76835889   0.01315000
9330.00   0.76008850   0.01205653
9332.00   0.74040610   0.01168691
9334.00   0.71883166   0.01174566
9336.00   0.71368122   0.01198540
9338.00   0.72313637   0.01271476
9340.00   0.72258097   0.01287533
9342.00   0.70470768   0.01265301
9344.00   0.71358538   0.01250725
9346.00   0.76711422   0.01241183
9348.00   0.82360613   0.01237786
9350.00   0.83544344   0.01251833
9352.00   0.81934983   0.01284181
9354.00   0.80779117   0.01285176
9356.00   0.78329027   0.01269664
9358.00   0.76740819   0.01241959
9360.00   0.75898540   0.01169746
9362.00   0.75275391   0.01123520
9364.00   0.74473381   0.01147306
9366.00   0.73682231   0.01216822
9368.00   0.73929679   0.01399059
9370.00   0.76662612   0.01719446
9372.00   0.75968665   0.01886761
9374.00   0.72727126   0.02003343
9376.00   0.68405277   0.02063612
9378.00   0.61670482   0.02075522
9380.00   0.54476613   0.02032055
9382.00   0.56190026   0.01871966
9384.00   0.69314021   0.01439116
9386.00   0.72012198   0.01203827
9388.00   0.68400443   0.01124851
9390.00   0.65303051   0.01098002
9392.00   0.63142633   0.01146914
9394.00   0.61605692   0.01221887
9396.00   0.62227988   0.01201228
9398.00   0.65175754   0.01107225
9400.00   0.66369712   0.01070431
9402.00   0.66750437   0.01065346
9404.00   0.67339206   0.01053552
9406.00   0.67779773   0.01028301
9408.00   0.68658125   0.01010771
9410.00   0.71169615   0.01022249
9412.00   0.75303721   0.01055029
9414.00   0.75442010   0.01083687
9416.00   0.70956415   0.01116955
9418.00   0.69733423   0.01152159
9420.00   0.70924610   0.01165816
9422.00   0.73050928   0.01216380
9424.00   0.75997424   0.01340524
9426.00   0.79743904   0.01499125
9428.00   0.80805874   0.01616969
9430.00   0.78334743   0.01757645
9432.00   0.79233575   0.01813848
9434.00   0.83702481   0.01790394
9436.00   0.86275947   0.01771533
9438.00   0.84546268   0.01802743
9440.00   0.80989879   0.01833733
9442.00   0.80015498   0.01758101
9444.00   0.80971062   0.01527940
9446.00   0.79803836   0.01440359
9448.00   0.76340741   0.01468393
9450.00   0.74619752   0.01472512
9452.00   0.75782001   0.01428926
9454.00   0.77628642   0.01382192
9456.00   0.77356935   0.01384068
9458.00   0.75577796   0.01431134
9460.00   0.75644356   0.01417228
9462.00   0.77135491   0.01353050
9464.00   0.78073752   0.01304825
9466.00   0.78777093   0.01249825
9468.00   0.79044479   0.01224768
9470.00   0.78326023   0.01274174
9472.00   0.76737744   0.01375142
9474.00   0.76622945   0.01466542
9476.00   0.78291315   0.01633070
9478.00   0.78208399   0.01659498
9480.00   0.76225430   0.01547265
9482.00   0.74591672   0.01412619
9484.00   0.74483901   0.01312995
9486.00   0.75138128   0.01219329
9488.00   0.75367624   0.01164306
9490.00   0.75452536   0.01137677
9492.00   0.75884837   0.01156766
9494.00   0.76557714   0.01232868
9496.00   0.77376074   0.01312110
9498.00   0.78543061   0.01406084
9500.00   0.79719764   0.01488222
9502.00   0.80047351   0.01481094
9504.00   0.80109501   0.01392101
9506.00   0.78807169   0.01323730
9508.00   0.75660646   0.01210665
9510.00   0.73068535   0.01142232
9512.00   0.70549047   0.01095961
9514.00   0.68898016   0.01129608
9516.00   0.69815540   0.01338937
9518.00   0.73158449   0.01666941
9520.00   0.74635476   0.01791161
9522.00   0.75983268   0.01872651
9524.00   0.76122230   0.01839643
9526.00   0.74677688   0.01615851
9528.00   0.72896487   0.01350690
9530.00   0.71358812   0.01222003
9532.00   0.69711852   0.01178062
9534.00   0.70241290   0.01156931
9536.00   0.73271739   0.01221094
9538.00   0.75187165   0.01248709
9540.00   0.76663262   0.01262295
9542.00   0.78145474   0.01279454
9544.00   0.79897523   0.01303963
9546.00   0.81678474   0.01333643
9548.00   0.82783097   0.01375292
9550.00   0.83624685   0.01453371
9552.00   0.83653957   0.01467895
9554.00   0.82621175   0.01430393
9556.00   0.81684166   0.01395905
9558.00   0.80823451   0.01361067
9560.00   0.80176562   0.01337714
9562.00   0.80452651   0.01376117
9564.00   0.81641459   0.01482822
9566.00   0.82397407   0.01508207
9568.00   0.83417141   0.01496712
9570.00   0.83874804   0.01463384
9572.00   0.83519447   0.01389064
9574.00   0.83011836   0.01304615
9576.00   0.82980347   0.01248772
9578.00   0.83131921   0.01200321
9580.00   0.83577442   0.01223068
9582.00   0.85665649   0.01349491
9584.00   0.85030699   0.01399122
9586.00   0.81552732   0.01403752
9588.00   0.77359068   0.01376480
9590.00   0.73031324   0.01299893
9592.00   0.68298620   0.01174787
9594.00   0.67286855   0.01142792
9596.00   0.70534980   0.01198330
9598.00   0.71490830   0.01216835
9600.00   0.71510416   0.01219351
9602.00   0.71473831   0.01236213
9604.00   0.71450555   0.01287820
9606.00   0.71496439   0.01348129
9608.00   0.72426027   0.01359295
9610.00   0.74820977   0.01338511
9612.00   0.75266427   0.01308919
9614.00   0.74076623   0.01232418
9616.00   0.73297936   0.01192170
9618.00   0.73153651   0.01216832
9620.00   0.73275954   0.01260826
9622.00   0.73658991   0.01271121
9624.00   0.74764639   0.01268262
9626.00   0.73988903   0.01263187
9628.00   0.71137822   0.01249898
9630.00   0.69304079   0.01235736
9632.00   0.68395877   0.01210025
9634.00   0.67903137   0.01194510
9636.00   0.67545527   0.01214320
9638.00   0.67416322   0.01259478
9640.00   0.68017262   0.01293178
9642.00   0.70492154   0.01363262
9644.00   0.70645076   0.01355800
9646.00   0.68260747   0.01245205
9648.00   0.65973544   0.01140549
9650.00   0.64802390   0.01121649
9652.00   0.64231825   0.01148635
9654.00   0.65620059   0.01157919
9656.00   0.70406270   0.01161939
9658.00   0.72137761   0.01194195
9660.00   0.71662861   0.01235441
9662.00   0.71578252   0.01306286
9664.00   0.72368014   0.01433221
9666.00   0.73700190   0.01563079
9668.00   0.76143652   0.01599006
9670.00   0.80974835   0.01581907
9672.00   0.81880617   0.01529893
9674.00   0.79779428   0.01375752
9676.00   0.77621514   0.01274711
9678.00   0.74601460   0.01265345
9680.00   0.72181362   0.01293204
9682.00   0.73379743   0.01309272
9684.00   0.77987951   0.01338613
9686.00   0.78775859   0.01349783
9688.00   0.77287960   0.01345794
9690.00   0.75934237   0.01349557
9692.00   0.73815268   0.01336769
9694.00   0.72262836   0.01356527
9696.00   0.72849411   0.01476466
9698.00   0.74951911   0.01656070
9700.00   0.74973381   0.01644474
9702.00   0.73597991   0.01423445
9704.00   0.72578233   0.01320810
9706.00   0.71441239   0.01292849
9708.00   0.70388514   0.01300205
9710.00   0.69324261   0.01340669
9712.00   0.68404597   0.01407133
9714.00   0.68761432   0.01437881
9716.00   0.70988911   0.01449328
9718.00   0.71615952   0.01467357
9720.00   0.71217167   0.01498751
9722.00   0.71051407   0.01503550
9724.00   0.71333772   0.01458892
9726.00   0.71841848   0.01396760
9728.00   0.72687972   0.01381782
9730.00   0.74660277   0.01391724
9732.00   0.73841822   0.01418084
9734.00   0.69770920   0.01485525
9736.00   0.67420673   0.01523843
9738.00   0.66745645   0.01538253
9740.00   0.67231959   0.01531150
9742.00   0.69240034   0.01487731
9744.00   0.73154122   0.01397922
9746.00   0.74410588   0.01373153
9748.00   0.73599297   0.01410195
9750.00   0.73545110   0.01412835
9752.00   0.74178690   0.01380015
9754.00   0.74564379   0.01351380
9756.00   0.74091727   0.01352153
9758.00   0.73072714   0.01369751
9760.00   0.72339606   0.01393274
9762.00   0.72048390   0.01460415
9764.00   0.70735884   0.01457140
9766.00   0.67483085   0.01379672
9768.00   0.65668917   0.01308446
9770.00   0.67143166   0.01276585
9772.00   0.70171058   0.01264100
9774.00   0.70963043   0.01261801
9776.00   0.70142227   0.01275740
9778.00   0.70636606   0.01296703
9780.00   0.72187209   0.01301651
9782.00   0.73036277   0.01361792
9784.00   0.72392976   0.01465146
9786.00   0.71610630   0.01615026
9788.00   0.72974497   0.01857932
9790.00   0.76743215   0.02228587
9792.00   0.76561010   0.02267705
9794.00   0.72491837   0.02016472
9796.00   0.70379961   0.01840002
9798.00   0.71227008   0.01756589
9800.00   0.71668506   0.01693887
9802.00   0.68199968   0.01604372
9804.00   0.61765087   0.01503417
9806.00   0.59950566   0.01445770
9808.00   0.60683799   0.01423695
9810.00   0.62539876   0.01420098
9812.00   0.66941905   0.01454479
9814.00   0.71044064   0.01486732
9816.00   0.73338580   0.01497388
9818.00   0.74645776   0.01497629
9820.00   0.74550021   0.01480271
9822.00   0.72694260   0.01431611
9824.00   0.70760620   0.01403017
9826.00   0.67073363   0.01379656
9828.00   0.64922309   0.01365519
9830.00   0.65785789   0.01364785
9832.00   0.68063575   0.01372523
9834.00   0.68965375   0.01376255
9836.00   0.69801319   0.01378552
9838.00   0.69564390   0.01388228
9840.00   0.67572635   0.01398164
9842.00   0.66684037   0.01420737
9844.00   0.67227018   0.01461250
9846.00   0.68509889   0.01507013
9848.00   0.70315719   0.01547147
9850.00   0.73476237   0.01596707
9852.00   0.73349321   0.01591274
9854.00   0.69806397   0.01520540
9856.00   0.67792237   0.01477286
9858.00   0.66601777   0.01445100
9860.00   0.66459739   0.01439750
9862.00   0.68390417   0.01482330
9864.00   0.72170353   0.01560687
9866.00   0.72859365   0.01649897
9868.00   0.71989930   0.01795537
9870.00   0.70005041   0.01863557
9872.00   0.65307575   0.01869225
9874.00   0.61713225   0.01865458
9876.00   0.61313868   0.01878795
9878.00   0.62693280   0.01890936
9880.00   0.63509619   0.01868734
9882.00   0.65018976   0.01811169
9884.00   0.65828812   0.01757777
9886.00   0.66046602   0.01667118
9888.00   0.66498077   0.01617915
9890.00   0.67544401   0.01637809
9892.00   0.68704844   0.01697838
9894.00   0.69198120   0.01771267
9896.00   0.69485891   0.01909265
9898.00   0.68863970   0.01911626
9900.00   0.66210175   0.01779504
9902.00   0.65469027   0.01690943
9904.00   0.67555517   0.01642425
9906.00   0.70225036   0.01640083
9908.00   0.71363807   0.01729515
9910.00   0.72187054   0.01903834
9912.00   0.70421201   0.01974570
9914.00   0.64776027   0.02018552
9916.00   0.61569881   0.02009916
9918.00   0.60248297   0.01924696
9920.00   0.59852087   0.01822534
9922.00   0.59971035   0.01746529
9924.00   0.60810345   0.01675749
9926.00   0.62504840   0.01641618
9928.00   0.66473424   0.01647678
9930.00   0.67918408   0.01655808
9932.00   0.66854799   0.01654251
9934.00   0.66242945   0.01697019
9936.00   0.67541981   0.01800482
9938.00   0.69540262   0.01942248
9940.00   0.69917023   0.02108629
9942.00   0.69094586   0.02367193
9944.00   0.68637174   0.02459676
9946.00   0.68314880   0.02447099
9948.00   0.67460603   0.02418894
9950.00   0.65270585   0.02368341
9952.00   0.63120121   0.02312315
9954.00   0.63579917   0.02315604
9956.00   0.66015649   0.02355162
9958.00   0.68404138   0.02416980
9960.00   0.73198026   0.02573244
9962.00   0.74946684   0.02611420
9964.00   0.73536873   0.02500100
9966.00   0.70138907   0.02344003
9968.00   0.64560652   0.02241024
9970.00   0.55860931   0.02140206
9972.00   0.54317230   0.02139376
9974.00   0.59444469   0.02307953
9976.00   0.62047833   0.02325402
9978.00   0.64066917   0.02203467
9980.00   0.64800239   0.02050917
9982.00   0.62907958   0.01918301
9984.00   0.59194434   0.01778831
9986.00   0.58366132   0.01736627
9988.00   0.59700483   0.01826591
9990.00   0.60116673   0.01836652
9992.00   0.59096044   0.01710197
9994.00   0.60186541   0.01748714
9996.00   0.66257107   0.02089437
9998.00   0.73915619   0.02492047
10000.00   0.74386895   0.02690610
10002.00   0.69761986   0.02853339
10004.00   0.64825708   0.02866415
10006.00   0.53892553   0.02641009
10008.00   0.49126655   0.02535553
10010.00   0.54125398   0.02667116
10012.00   0.62166917   0.02833857
10014.00   0.65145421   0.02817725
10016.00   0.66756022   0.02672683
10018.00   0.65015769   0.02622905
10020.00   0.56942326   0.02615512
10022.00   0.53542012   0.02601189
10024.00   0.55200577   0.02608492
10026.00   0.58313507   0.02585713
10028.00   0.60694242   0.02459022
10030.00   0.63528079   0.02233270
10032.00   0.64539003   0.02136372
10034.00   0.63433903   0.02137746
10036.00   0.63606042   0.02128451
10038.00   0.64920557   0.02111875
10040.00   0.65960997   0.02137124
10042.00   0.65545952   0.02248259
10044.00   0.64555985   0.02401276
10046.00   0.66507089   0.02451227
10048.00   0.73055905   0.02413120
10050.00   0.74392056   0.02430156
10052.00   0.71222216   0.02440900
10054.00   0.69236004   0.02500926
10056.00   0.69405591   0.02669701
10058.00   0.71057576   0.02845196
10060.00   0.75517315   0.02827898
10062.00   0.85491025   0.02625496
10064.00   0.87074047   0.02542257
10066.00   0.80616599   0.02493825
10068.00   0.77574378   0.02465677
10070.00   0.79516590   0.02450176
10072.00   0.82557309   0.02465378
10074.00   0.83107054   0.02534500
10076.00   0.82363325   0.02649569
10078.00   0.82719123   0.02765232
10080.00   0.83867908   0.02958282
10082.00   0.84367281   0.03027606
10084.00   0.84380090   0.02979031
10086.00   0.84000254   0.02880781
10088.00   0.83280349   0.02756980
10090.00   0.82209921   0.02583317
10092.00   0.80317682   0.02516355
10094.00   0.77521676   0.02508593
10096.00   0.74613136   0.02563643
10098.00   0.68710232   0.02709781
10100.00   0.66785312   0.02854524
10102.00   0.74414659   0.02976855
10104.00   0.86594009   0.03088152
10106.00   0.87672657   0.03145553
10108.00   0.81320071   0.03154995
10110.00   0.74725789   0.03163293
10112.00   0.58962798   0.03125154
10114.00   0.53001100   0.03128815
10116.00   0.64200407   0.03174451
10118.00   0.81770062   0.03268198
10120.00   0.89607334   0.03471738
10122.00   0.94984156   0.03852775
10124.00   0.93676585   0.03878009
10126.00   0.81910515   0.03627222
10128.00   0.74834371   0.03372648
10130.00   0.73413771   0.03049210
10132.00   0.73488158   0.02730807
10134.00   0.71830088   0.02609100
10136.00   0.69520694   0.02658278
10138.00   0.69715399   0.02638803
10140.00   0.73479086   0.02598899
10142.00   0.74209750   0.02635205
10144.00   0.71715951   0.02750530
10146.00   0.69151717   0.02886941
10148.00   0.68203068   0.03042102
10150.00   0.67985582   0.03212465
10152.00   0.68906856   0.03212662
10154.00   0.72774577   0.02997707
10156.00   0.73150408   0.02933242
10158.00   0.69469422   0.02936180
10160.00   0.67555308   0.02994019
10162.00   0.70319659   0.03118174
10164.00   0.74979949   0.03281752
10166.00   0.75954068   0.03410375
10168.00   0.74378937   0.03563792
10170.00   0.73858386   0.03626557
10172.00   0.73329574   0.03597229
10174.00   0.72730035   0.03591914
10176.00   0.72864074   0.03611577
10178.00   0.72240138   0.03658313
10180.00   0.67483664   0.03777599
10182.00   0.57179183   0.03995595
10184.00   0.56790680   0.04029565
10186.00   0.66658574   0.03950340
10188.00   0.70958793   0.03825650
10190.00   0.69167078   0.03580170
10192.00   0.65893877   0.03340221
10194.00   0.64187306   0.03271774
10196.00   0.62600571   0.03318507
10198.00   0.61554474   0.03404193
10200.00   0.59284139   0.03607310
10202.00   0.60974157   0.03736033
10204.00   0.68269849   0.03811266
10206.00   0.74556684   0.03887160
10208.00   0.76031160   0.04008813
10210.00   0.74965280   0.04141921
10212.00   0.74641973   0.04141394
10214.00   0.74013567   0.03998830
10216.00   0.72686362   0.03916657
10218.00   0.70293850   0.03806507
10220.00   0.68123990   0.03757380
10222.00   0.66924864   0.03830983
10224.00   0.65779346   0.03949482
10226.00   0.62576872   0.03952841
10228.00   0.55890268   0.03857634
10230.00   0.55007929   0.03853583
10232.00   0.57336491   0.03872612
10234.00   0.62173885   0.03944533
10236.00   0.72784680   0.04145472
10238.00   0.82764888   0.04311524
10240.00   0.81740624   0.04208745
10242.00   0.71655691   0.03850444
10244.00   0.68438274   0.03722263
10246.00   0.67959356   0.03757661
10248.00   0.67198354   0.03719993
10250.00   0.67695785   0.03585319
10252.00   0.66808987   0.03472245
10254.00   0.61227751   0.03484105
10256.00   0.52128077   0.03577938
10258.00   0.48782519   0.03639457
10260.00   0.50233322   0.03764019
10262.00   0.49392918   0.03766889
10264.00   0.47724888   0.03585828
10266.00   0.45493317   0.03479886
10268.00   0.41793111   0.03576672
10270.00   0.37597919   0.03790408
10272.00   0.38202614   0.04068552
10274.00   0.44102016   0.04611174
10276.00   0.47062334   0.04724216
10278.00   0.49007624   0.04357350
10280.00   0.51344782   0.04283979
10282.00   0.56216270   0.04811325
10284.00   0.60219741   0.05447709
10286.00   0.55183131   0.05675174
10288.00   0.38183382   0.05716195
10290.00   0.37548530   0.05704612
10292.00   0.53522152   0.05624457
10294.00   0.59452897   0.05397428
10296.00   0.50819105   0.04863692
10298.00   0.39939600   0.04261465
10300.00   0.39067975   0.04055347
10302.00   0.44152090   0.04169700
10304.00   0.44581616   0.04079318
10306.00   0.41691375   0.03863528
10308.00   0.42118746   0.03797848
10310.00   0.46388105   0.03892441
10312.00   0.50748539   0.04029924
10314.00   0.52586538   0.04181644
10316.00   0.53211010   0.04361110
10318.00   0.55519342   0.04308704
10320.00   0.58161306   0.03886243
10322.00   0.62283337   0.03816534
10324.00   0.69636267   0.04022015
10326.00   0.74890453   0.04261775
10328.00   0.76489490   0.04532816
10330.00   0.75333595   0.04792114
10332.00   0.69924295   0.04732730
10334.00   0.53676826   0.04229756
10336.00   0.52844787   0.04132359
10338.00   0.67274290   0.04339867
10340.00   0.75174117   0.04457605
10342.00   0.71424007   0.04377997
10344.00   0.63921708   0.04284399
10346.00   0.61545467   0.04440093
10348.00   0.61584479   0.04790111
10350.00   0.59434950   0.04978289
10352.00   0.56436336   0.05233281
10354.00   0.52910453   0.05229793
10356.00   0.45110923   0.04750142
10358.00   0.41124031   0.04272455
10360.00   0.51236504   0.04489565
10362.00   0.72873330   0.05140203
10364.00   0.83271444   0.05367510
10366.00   0.92975205   0.05358078
10368.00   0.92458159   0.05511739
10370.00   0.78759062   0.05948541
10372.00   0.63502216   0.06159409
10374.00   0.51039571   0.05792215
10376.00   0.39325559   0.04992165
10378.00   0.41142306   0.04641867
10380.00   0.59626329   0.04575203
10382.00   0.69336522   0.04499484
10384.00   0.76951873   0.04528102
10386.00   0.82810462   0.04583436
10388.00   0.87545758   0.04648976
10390.00   0.90243965   0.04732351
10392.00   0.87679595   0.04813940
10394.00   0.75694805   0.04955791
10396.00   0.75845104   0.04937828
10398.00   0.88280845   0.04700534
10400.00   0.93703955   0.04601266
10402.00   0.89520353   0.04680283
10404.00   0.80858678   0.04868969
10406.00   0.70643753   0.05176291
10408.00   0.54449624   0.05683110
10410.00   0.51809895   0.05724780
10412.00   0.62982774   0.05310916
10414.00   0.68127984   0.05089254
10416.00   0.67713690   0.05082754
10418.00   0.65969568   0.05109922
10420.00   0.65697175   0.05038889
10422.00   0.65849799   0.04918676
10424.00   0.61603731   0.04948032
10426.00   0.51370275   0.05251527
10428.00   0.45500386   0.05205926
10430.00   0.42004898   0.04721544
10432.00   0.40378505   0.04299488
10434.00   0.40145874   0.04337887
10436.00   0.41749421   0.04596186
10438.00   0.47696739   0.04534427
10440.00   0.63156426   0.04118085
10442.00   0.67634392   0.04094381
10444.00   0.63714355   0.04364787
10446.00   0.60562932   0.04609548
10448.00   0.61216712   0.04835501
10450.00   0.62073183   0.05004620
10452.00   0.57863659   0.04892251
10454.00   0.47695693   0.04433011
10456.00   0.44582984   0.04232103
10458.00   0.45990556   0.04133731
10460.00   0.47596392   0.04097097
10462.00   0.48868117   0.04147828
10464.00   0.51237524   0.04239179
10466.00   0.56454730   0.04308359
10468.00   0.64793974   0.04386258
10470.00   0.68653864   0.04443345
10472.00   0.70334631   0.04487626
10474.00   0.70340323   0.04526113
10476.00   0.68304265   0.04597664
10478.00   0.64913481   0.04609080
10480.00   0.59598869   0.04438903
10482.00   0.52419668   0.04119257
10484.00   0.52382839   0.04133312
10486.00   0.61501938   0.04350918
10488.00   0.63104671   0.04651221
10490.00   0.56131178   0.05221586
10492.00   0.53549212   0.05565927
10494.00   0.63885480   0.05511136
10496.00   0.79494435   0.05227714
10498.00   0.79606467   0.05003171
10500.00   0.66658998   0.04622609
10502.00   0.59166920   0.04439059
10504.00   0.47625586   0.04375469
10506.00   0.43231380   0.04403602
10508.00   0.52022696   0.04583528
10510.00   0.64377761   0.04794243
10512.00   0.63614053   0.04799411
10514.00   0.52253878   0.04616364
10516.00   0.50921625   0.04647069
10518.00   0.57216609   0.04801330
10520.00   0.59060407   0.04964735
10522.00   0.55030972   0.05221031
10524.00   0.50067526   0.05401288
10526.00   0.48514885   0.05279852
10528.00   0.48742816   0.04879726
10530.00   0.47718474   0.04846980
10532.00   0.45573193   0.05018884
10534.00   0.45042491   0.05253387
10536.00   0.45250151   0.05730233
10538.00   0.47159481   0.06026451
10540.00   0.51961321   0.05841662
10542.00   0.58977187   0.05332909
10544.00   0.64378506   0.05243804
10546.00   0.71599513   0.05505248
10548.00   0.73697096   0.05532983
10550.00   0.68090236   0.05309916
10552.00   0.66437048   0.05286971
10554.00   0.73975712   0.05662529
10556.00   0.85688812   0.06200252
10558.00   0.93085581   0.06605440
10560.00   1.03218377   0.07201863
10562.00   1.01143301   0.07195929
10564.00   0.83624130   0.06463835
10566.00   0.72834349   0.06020824
10568.00   0.72949094   0.06210258
10570.00   0.76570702   0.06532551
10572.00   0.76488030   0.06432895
10574.00   0.75732094   0.06025818
10576.00   0.73962134   0.05928178
10578.00   0.70006436   0.06024572
10580.00   0.67753565   0.06097560
10582.00   0.66640431   0.06188741
10584.00   0.67005944   0.06256558
10586.00   0.70339072   0.06237733
10588.00   0.76599067   0.06153739
10590.00   0.76784992   0.06117678
10592.00   0.70566458   0.06070494
10594.00   0.68650073   0.06081001
10596.00   0.70954919   0.06185644
10598.00   0.72281182   0.06256707
10600.00   0.69598836   0.06212728
10602.00   0.64851934   0.06107046
10604.00   0.62316161   0.06084642
10606.00   0.60092324   0.06105614
10608.00   0.59438789   0.06132526
10610.00   0.60846996   0.06201332
10612.00   0.62015760   0.06241675
10614.00   0.61893171   0.06217818
10616.00   0.61745530   0.06174824
10618.00   0.63913995   0.06202555
10620.00   0.68346649   0.06290837
10622.00   0.71433252   0.06333455
10624.00   0.75694311   0.06389044
10626.00   0.77004004   0.06382666
10628.00   0.74358743   0.06283449
10630.00   0.69972402   0.06153858
10632.00   0.65789449   0.06067599
10634.00   0.59977812   0.05981506
10636.00   0.59377003   0.05982771
10638.00   0.65111160   0.06123447
10640.00   0.66909003   0.06155958
10642.00   0.64610946   0.06069315
10644.00   0.61825877   0.05968305
10646.00   0.60078239   0.05915616
10648.00   0.58379841   0.05878692
10650.00   0.62872368   0.05927837
10652.00   0.78282928   0.06139151
10654.00   0.82456899   0.06180327
10656.00   0.76157671   0.06075762
10658.00   0.70330489   0.05960665
10660.00   0.69160050   0.05881554
10662.00   0.70024866   0.05813764
10664.00   0.72723532   0.05796104
10666.00   0.79136890   0.05850657
10668.00   0.82998782   0.05854067
10670.00   0.86303347   0.05848578
10672.00   0.88667142   0.05818417
10674.00   0.90456253   0.05752943
10676.00   0.91006893   0.05666896
10678.00   0.88353831   0.05587542
10680.00   0.81062651   0.05497144
10682.00   0.79616362   0.05427594
10684.00   0.82434654   0.05371670
10686.00   0.84542793   0.05323464
10688.00   0.86370754   0.05288040
10690.00   0.87648946   0.05256240
10692.00   0.87245739   0.05220535
10694.00   0.85336530   0.05190623
10696.00   0.84692508   0.05111476
10698.00   0.84615928   0.04973669
10700.00   0.84451878   0.04855455
10702.00   0.85101300   0.04755906
10704.00   0.84662014   0.04648083
10706.00   0.81594396   0.04512859
10708.00   0.76692671   0.04357621
10710.00   0.72197765   0.04205979
10712.00   0.65169424   0.04017906
10714.00   0.62733454   0.03895754
10716.00   0.63545120   0.03820526
10718.00   0.66450691   0.03790399
10720.00   0.72952449   0.03839922
10722.00   0.80869073   0.03922933
10724.00   0.81027359   0.03871390
10726.00   0.73603958   0.03688119
10728.00   0.70727772   0.03581835
10730.00   0.68267393   0.03485258
10732.00   0.67610985   0.03417189
10734.00   0.69751304   0.03391986
10736.00   0.72934657   0.03388389
10738.00   0.74535936   0.03374971
10740.00   0.76225644   0.03378965
10742.00   0.74754637   0.03322301
10744.00   0.68800586   0.03163493
10746.00   0.65448076   0.03092234
10748.00   0.64360881   0.03148449
10750.00   0.64822853   0.03215657
10752.00   0.67224729   0.03200322
10754.00   0.71829265   0.03144822
10756.00   0.73468232   0.03056905
10758.00   0.73767114   0.02876600
10760.00   0.73023236   0.02769772
10762.00   0.70274734   0.02741705
10764.00   0.67760384   0.02717672
10766.00   0.67096245   0.02616019
10768.00   0.67288500   0.02487028
10770.00   0.65563869   0.02637407
10772.00   0.59820265   0.03160180
10774.00   0.60358471   0.03267147
10776.00   0.67609489   0.03129958
10778.00   0.72831583   0.02939175
10780.00   0.73809999   0.02693407
10782.00   0.72329289   0.02404358
10784.00   0.68353397   0.02318918
10786.00   0.58699864   0.02462537
10788.00   0.56443495   0.02439172
10790.00   0.59823722   0.02337826
10792.00   0.62410259   0.02242706
10794.00   0.64647615   0.02136144
10796.00   0.65817469   0.02051999
10798.00   0.63047522   0.02083292
10800.00   0.55995280   0.02233391
10802.00   0.54480559   0.02223257
10804.00   0.57615381   0.02090177
10806.00   0.58479780   0.01987966
10808.00   0.57030809   0.01899077
10810.00   0.55335391   0.01825740
10812.00   0.54691631   0.01787500
10814.00   0.54484826   0.01780821
10816.00   0.54502368   0.01754777
10818.00   0.56248420   0.01723839
10820.00   0.55095947   0.01696396
10822.00   0.48959282   0.01638105
10824.00   0.45703578   0.01631926
10826.00   0.50925797   0.01754726
10828.00   0.60304165   0.01926854
10830.00   0.60774928   0.01932613
10832.00   0.52857882   0.01792039
10834.00   0.50769043   0.01712842
10836.00   0.50429970   0.01605793
10838.00   0.51580429   0.01548430
10840.00   0.55315924   0.01597643
10842.00   0.59802514   0.01676433
10844.00   0.60437298   0.01643822
10846.00   0.57811260   0.01498193
10848.00   0.57411438   0.01481084
10850.00   0.58378893   0.01591939
10852.00   0.58249146   0.01619365
10854.00   0.56075275   0.01520949
10856.00   0.54047847   0.01402723
10858.00   0.55000854   0.01407820
10860.00   0.58481544   0.01498791
