# File created by shivutils (I.Shivvers)
# wl(A)   flm    er(optional)
3428.00   1.35357494   0.45713465
3430.00   2.64825049   0.48332205
3432.00   0.97255139   0.47432059
3434.00   1.53741819   0.48796201
3436.00   0.66434455   0.49303888
3438.00   0.14263227   0.47667770
3440.00   1.42589044   0.45573570
3442.00   0.97337499   0.44547470
3444.00   1.13319192   0.47329560
3446.00   0.58106444   0.49574529
3448.00   0.56609019   0.52369622
3450.00   1.80456508   0.53925111
3452.00   0.16883508   0.53622881
3454.00   1.65203752   0.53849253
3456.00   0.09659272   0.53214399
3458.00   2.25063307   0.51735981
3460.00   -0.26909459   0.50291522
3462.00   2.07298128   0.52015025
3464.00   1.69451187   0.52564180
3466.00   1.02608446   0.52499591
3468.00   0.81762935   0.53148628
3470.00   0.08953994   0.52906177
3472.00   0.58073193   0.50792371
3474.00   1.39048815   0.48236914
3476.00   1.31340783   0.48179931
3478.00   1.26072090   0.51056571
3480.00   1.23433428   0.52484509
3482.00   1.72134647   0.51529880
3484.00   0.78878146   0.50262330
3486.00   1.02794407   0.51622525
3488.00   0.89738479   0.50067127
3490.00   0.43162928   0.47634380
3492.00   1.82786637   0.48299253
3494.00   -0.03770349   0.47790122
3496.00   -0.11957166   0.46942734
3498.00   1.08807771   0.49164676
3500.00   0.65739059   0.51406989
3502.00   0.62049061   0.51923239
3504.00   1.63969648   0.50676683
3506.00   1.36610753   0.50136476
3508.00   0.86285615   0.49415975
3510.00   -0.02376718   0.48411023
3512.00   1.14718302   0.46744648
3514.00   -0.09714179   0.46378806
3516.00   0.73796718   0.48487091
3518.00   0.78058046   0.49888643
3520.00   1.00713492   0.48218471
3522.00   0.70228107   0.45239163
3524.00   0.98115152   0.43484035
3526.00   -0.47270140   0.43974125
3528.00   0.31603552   0.46829656
3530.00   -0.23676222   0.47506689
3532.00   -0.58338566   0.47262796
3534.00   0.34485983   0.48371679
3536.00   0.75299496   0.48815245
3538.00   0.92608236   0.48630644
3540.00   1.00053568   0.48688780
3542.00   0.93904019   0.48744828
3544.00   -0.09254209   0.49549673
3546.00   1.17818098   0.49187040
3548.00   1.37631459   0.48590552
3550.00   0.55410907   0.48874130
3552.00   0.49265203   0.47269036
3554.00   0.66921808   0.46366032
3556.00   0.42382635   0.47472852
3558.00   0.60163690   0.47537447
3560.00   1.02544550   0.47298945
3562.00   0.73148758   0.46745034
3564.00   1.38554532   0.44312474
3566.00   0.56574420   0.43006357
3568.00   0.92877076   0.42588255
3570.00   0.68620219   0.42515749
3572.00   -0.36017564   0.44635626
3574.00   0.68474489   0.46771668
3576.00   0.63049817   0.45900669
3578.00   1.23906892   0.43548701
3580.00   0.39023156   0.40224214
3582.00   0.92561458   0.39372533
3584.00   0.81492085   0.37501138
3586.00   0.82662435   0.36781217
3588.00   0.82811467   0.40660056
3590.00   1.48845901   0.44280483
3592.00   0.43383826   0.43697525
3594.00   0.96772372   0.42675365
3596.00   0.89938626   0.43624066
3598.00   0.45667836   0.43896059
3600.00   1.11069393   0.43559972
3602.00   0.79844092   0.41239382
3604.00   0.56288749   0.39071440
3606.00   0.22839704   0.38597106
3608.00   0.73325420   0.37681982
3610.00   1.04883495   0.38528900
3612.00   0.99154402   0.42652046
3614.00   1.40267856   0.44084703
3616.00   0.58627859   0.40497350
3618.00   0.25415776   0.36602900
3620.00   2.05729576   0.37430137
3622.00   0.00845587   0.39020842
3624.00   0.31979274   0.40272904
3626.00   0.22071276   0.41160192
3628.00   0.70398363   0.42275882
3630.00   0.63922274   0.40889292
3632.00   0.91353935   0.38748946
3634.00   0.17028601   0.38105182
3636.00   1.33632944   0.39174801
3638.00   0.97001008   0.40073132
3640.00   0.76412075   0.41905908
3642.00   1.60707941   0.43476296
3644.00   1.18485337   0.43417857
3646.00   0.12591149   0.45313739
3648.00   -0.78778341   0.60785746
3650.00   1.10963163   0.68185655
3652.00   2.77664434   0.62676300
3654.00   0.45734711   0.56330044
3656.00   -0.10828882   0.50920610
3658.00   0.55566146   0.43548217
3660.00   1.00200111   0.45844702
3662.00   0.99969377   0.50513837
3664.00   0.94256279   0.47881141
3666.00   0.60589024   0.39732741
3668.00   0.69248726   0.36798427
3670.00   0.36827130   0.36486210
3672.00   0.94394061   0.36797383
3674.00   0.43205775   0.36497798
3676.00   0.55076278   0.34931152
3678.00   0.83055581   0.33448768
3680.00   0.71690297   0.33387163
3682.00   0.20546569   0.33334627
3684.00   0.74681069   0.32941356
3686.00   0.62433659   0.31507912
3688.00   -0.14381619   0.31983454
3690.00   0.38153645   0.34152180
3692.00   1.23295903   0.34784343
3694.00   1.32326622   0.33417746
3696.00   1.32234224   0.33176200
3698.00   0.67967567   0.33723393
3700.00   0.55108898   0.33895948
3702.00   0.58985072   0.32332318
3704.00   0.95208668   0.30592959
3706.00   1.16304498   0.29425678
3708.00   0.38346042   0.29242069
3710.00   0.72106416   0.30520101
3712.00   0.57710655   0.32245617
3714.00   0.28924452   0.32545391
3716.00   0.42494912   0.31612158
3718.00   0.39517205   0.29402916
3720.00   0.22142579   0.27203626
3722.00   0.15579523   0.27608092
3724.00   0.21041860   0.29529472
3726.00   0.41783427   0.29930477
3728.00   1.03120223   0.29746688
3730.00   0.62737090   0.28998546
3732.00   0.37916728   0.26432190
3734.00   0.92992031   0.24152626
3736.00   0.44438361   0.23986822
3738.00   0.53013770   0.26534671
3740.00   0.73766030   0.28458432
3742.00   0.83168687   0.27658737
3744.00   0.73557788   0.25517656
3746.00   1.23674099   0.24237866
3748.00   0.71062833   0.23400644
3750.00   0.93905146   0.24761805
3752.00   0.42819116   0.27204335
3754.00   0.74713933   0.28564037
3756.00   0.30628428   0.27307389
3758.00   0.83047590   0.25684387
3760.00   0.88222996   0.25735512
3762.00   0.69469262   0.25866770
3764.00   0.24207567   0.25493809
3766.00   0.97630300   0.25405174
3768.00   0.74916722   0.25173200
3770.00   1.10984622   0.26193031
3772.00   1.76778417   0.27132501
3774.00   4.82962362   0.28823354
3776.00   6.26620894   0.29483953
3778.00   4.58206320   0.28963592
3780.00   1.42500083   0.28042783
3782.00   0.59679481   0.27885171
3784.00   0.44417246   0.27085405
3786.00   0.78087869   0.25629212
3788.00   0.73620350   0.25093458
3790.00   0.91387971   0.25681408
3792.00   -0.00246441   0.25142734
3794.00   0.55043817   0.24207967
3796.00   0.31581617   0.23113057
3798.00   0.49030143   0.23039762
3800.00   0.48022156   0.24428396
3802.00   0.56316958   0.26125007
3804.00   0.48411962   0.26143104
3806.00   0.61706028   0.25099601
3808.00   0.67609338   0.25215663
3810.00   0.52723701   0.25718018
3812.00   0.25563170   0.24809284
3814.00   0.43143027   0.23001789
3816.00   0.43927351   0.22771867
3818.00   1.00280661   0.22802385
3820.00   0.92462503   0.22457679
3822.00   0.70798955   0.22431705
3824.00   0.96855392   0.21796908
3826.00   0.94912208   0.21330070
3828.00   0.37938211   0.21649520
3830.00   0.82587865   0.21839955
3832.00   0.93413761   0.20971737
3834.00   0.85823255   0.20871252
3836.00   0.76462649   0.21326064
3838.00   0.66521577   0.21184131
3840.00   1.05363832   0.21879453
3842.00   0.51816256   0.23144035
3844.00   0.74067324   0.23778817
3846.00   0.74763348   0.23699742
3848.00   1.22809751   0.23502306
3850.00   0.53932457   0.23111455
3852.00   -0.16875663   0.23389436
3854.00   0.22974318   0.22816661
3856.00   0.98008519   0.22219530
3858.00   0.75325487   0.21185756
3860.00   0.54188835   0.21605779
3862.00   0.89782208   0.23411508
3864.00   0.45647225   0.23726492
3866.00   0.78752931   0.23163716
3868.00   0.47738173   0.22480956
3870.00   1.04987679   0.21818259
3872.00   0.80566367   0.22865976
3874.00   0.15650035   0.24933510
3876.00   0.86742687   0.24274744
3878.00   0.71359751   0.22779484
3880.00   0.58585875   0.22172542
3882.00   0.73834888   0.22215210
3884.00   1.04278996   0.22311367
3886.00   0.88061345   0.21967611
3888.00   0.64416983   0.21775145
3890.00   0.59369042   0.22761157
3892.00   0.82712884   0.23847051
3894.00   0.64459037   0.24309755
3896.00   0.53473567   0.24510039
3898.00   1.17827975   0.24570752
3900.00   1.10389790   0.24620080
3902.00   0.95951027   0.24575957
3904.00   0.55631961   0.25710142
3906.00   1.93530719   0.29166414
3908.00   1.29072943   0.31456429
3910.00   1.54696961   0.32389707
3912.00   1.37843723   0.32481382
3914.00   0.53671600   0.30074526
3916.00   0.44606323   0.27455478
3918.00   0.32963766   0.25671056
3920.00   0.21413517   0.24123172
3922.00   1.05683604   0.23728949
3924.00   0.88139871   0.23546359
3926.00   1.58519129   0.22432409
3928.00   1.19585455   0.20602475
3930.00   0.12304196   0.19791935
3932.00   0.53115962   0.20364252
3934.00   1.06801451   0.19986535
3936.00   0.76183785   0.19107565
3938.00   0.92637668   0.20298305
3940.00   0.74671086   0.21713444
3942.00   0.70306530   0.23467915
3944.00   0.57924352   0.24630770
3946.00   0.58469068   0.24352444
3948.00   0.59941204   0.23992287
3950.00   0.72857973   0.23933929
3952.00   0.98261566   0.23739907
3954.00   0.73679682   0.23469107
3956.00   0.73824727   0.23391065
3958.00   0.76681071   0.23865791
3960.00   0.95156207   0.24587885
3962.00   1.07849851   0.23176564
3964.00   0.82377239   0.20245118
3966.00   0.38298074   0.17995056
3968.00   0.96810062   0.17120576
3970.00   1.11165930   0.17891953
3972.00   0.92672651   0.19509958
3974.00   0.32622986   0.20532145
3976.00   0.67384378   0.21458826
3978.00   0.59310028   0.22587604
3980.00   0.93216275   0.23188271
3982.00   0.59189566   0.22903806
3984.00   0.25625911   0.22742173
3986.00   -0.05693107   0.22995105
3988.00   1.45845220   0.23715679
3990.00   0.77198925   0.23787336
3992.00   1.17893919   0.23946702
3994.00   0.75637740   0.24875684
3996.00   0.66052992   0.25523760
3998.00   0.94343078   0.25087379
4000.00   1.12620432   0.24289872
4002.00   1.39294158   0.23819832
4004.00   1.35594978   0.23087288
4006.00   1.06171370   0.23088623
4008.00   1.17406935   0.23878144
4010.00   0.91961595   0.24213199
4012.00   1.07843106   0.24262238
4014.00   0.94900312   0.23955226
4016.00   0.94344902   0.24520594
4018.00   1.11316447   0.27213691
4020.00   0.62092396   0.29760467
4022.00   1.40656976   0.30480499
4024.00   1.05904144   0.29470305
4026.00   1.34847683   0.27323996
4028.00   0.77637370   0.25843149
4030.00   0.45220531   0.24957310
4032.00   0.92963845   0.24158418
4034.00   0.91195133   0.23954159
4036.00   0.43241471   0.24134085
4038.00   1.56026071   0.24199300
4040.00   1.55658953   0.24120216
4042.00   0.79673308   0.26476017
4044.00   1.69290563   0.40562109
4046.00   1.11274465   0.47818929
4048.00   0.56237608   0.41390040
4050.00   0.51157002   0.29843042
4052.00   0.55087535   0.25859756
4054.00   0.72447862   0.25605209
4056.00   1.23401023   0.24532504
4058.00   0.85256666   0.23208840
4060.00   0.69034618   0.22365022
4062.00   0.62234636   0.21702537
4064.00   0.99539993   0.21573862
4066.00   0.37692819   0.21904574
4068.00   0.90443560   0.22211039
4070.00   1.32708048   0.21874878
4072.00   1.34133737   0.21644365
4074.00   0.25955682   0.22882835
4076.00   0.87571534   0.25488474
4078.00   0.48297666   0.26246574
4080.00   -0.14852798   0.25574293
4082.00   0.37737762   0.25073194
4084.00   0.74687379   0.24587791
4086.00   0.78535596   0.24368184
4088.00   0.77060918   0.23464881
4090.00   0.60300104   0.22016231
4092.00   1.04937560   0.21638387
4094.00   0.88145627   0.21397562
4096.00   0.86796083   0.21066222
4098.00   1.00972759   0.20704728
4100.00   1.04378286   0.19869488
4102.00   1.38262720   0.19576980
4104.00   1.18429385   0.20125660
4106.00   1.16880467   0.20741303
4108.00   1.11879242   0.20936744
4110.00   1.38750154   0.20963419
4112.00   0.80555330   0.21040142
4114.00   1.35238492   0.21461095
4116.00   0.92691973   0.21267808
4118.00   0.55768667   0.20625182
4120.00   0.58042015   0.20261509
4122.00   1.23634051   0.20519532
4124.00   1.00721391   0.20498909
4126.00   1.20632021   0.20561269
4128.00   1.14196943   0.20598705
4130.00   1.20448060   0.21080273
4132.00   1.24188232   0.21567129
4134.00   1.12573259   0.21423639
4136.00   1.25248522   0.21413177
4138.00   1.26111387   0.22046407
4140.00   1.39187811   0.22137610
4142.00   1.25398779   0.20857372
4144.00   1.06440769   0.19997816
4146.00   1.20602853   0.20174169
4148.00   0.97488051   0.20539496
4150.00   1.35213152   0.21607290
4152.00   1.51716020   0.22031670
4154.00   1.67758552   0.21182692
4156.00   1.47148220   0.20402503
4158.00   1.45362053   0.20290286
4160.00   1.44965983   0.20760194
4162.00   1.01299498   0.22051434
4164.00   1.31450752   0.22990143
4166.00   1.02709817   0.22353453
4168.00   1.19900638   0.20893190
4170.00   1.24877547   0.20015715
4172.00   1.25622694   0.19321369
4174.00   1.34239864   0.19175215
4176.00   1.18207633   0.19501449
4178.00   0.94051884   0.19792356
4180.00   0.68430091   0.19496273
4182.00   1.25803992   0.19220943
4184.00   0.75674986   0.19107035
4186.00   0.86179196   0.19084952
4188.00   1.10917834   0.19016675
4190.00   0.64683987   0.19303827
4192.00   0.66278542   0.19531824
4194.00   0.71681856   0.19426105
4196.00   0.70780232   0.18616652
4198.00   0.99330269   0.18379467
4200.00   0.77906686   0.18386881
4202.00   0.85296872   0.18681028
4204.00   1.15644105   0.19212409
4206.00   1.50844192   0.19706730
4208.00   1.06055955   0.19989412
4210.00   1.15430062   0.20275609
4212.00   1.56259418   0.20152878
4214.00   1.24192723   0.19655110
4216.00   0.86492953   0.19398809
4218.00   0.76197367   0.19539991
4220.00   0.56276490   0.19557200
4222.00   0.75942134   0.19164823
4224.00   1.10116367   0.18380898
4226.00   0.57255811   0.18168534
4228.00   0.73620907   0.18785155
4230.00   0.22756771   0.19531959
4232.00   0.63519964   0.19876079
4234.00   0.84906727   0.19864918
4236.00   0.75372969   0.19975231
4238.00   0.80036447   0.20027123
4240.00   1.03270280   0.19521200
4242.00   0.82408465   0.19546376
4244.00   0.67460329   0.21729235
4246.00   0.74708455   0.22952462
4248.00   0.67508770   0.21666746
4250.00   0.60420511   0.19801471
4252.00   0.80241614   0.19046628
4254.00   0.21732080   0.19069553
4256.00   1.17191139   0.19324620
4258.00   0.69287123   0.18917137
4260.00   1.07972929   0.18682744
4262.00   1.16784582   0.18771640
4264.00   0.92063810   0.18886628
4266.00   1.27340834   0.18871623
4268.00   1.34315585   0.18528003
4270.00   0.71402208   0.18181712
4272.00   0.70342060   0.18060103
4274.00   1.18874002   0.18537258
4276.00   0.85286660   0.18932845
4278.00   0.32775311   0.19034663
4280.00   0.97004815   0.19074075
4282.00   1.06099586   0.19151925
4284.00   0.57969692   0.18819311
4286.00   0.60596129   0.18460287
4288.00   1.02901192   0.18201959
4290.00   1.00782293   0.18177769
4292.00   1.03954460   0.18461242
4294.00   0.77408694   0.18460825
4296.00   0.79438167   0.18069034
4298.00   0.68878106   0.17472932
4300.00   1.02126356   0.17131635
4302.00   0.81005246   0.17197425
4304.00   0.53281716   0.17391008
4306.00   0.36462223   0.17440052
4308.00   0.91747170   0.17351952
4310.00   0.67914827   0.18215370
4312.00   1.21975824   0.20189372
4314.00   1.10331343   0.21191919
4316.00   0.69574970   0.20888439
4318.00   0.60048205   0.21196683
4320.00   1.23588137   0.21317866
4322.00   0.67290439   0.20689018
4324.00   0.70253379   0.20029284
4326.00   0.74538977   0.19620524
4328.00   0.87110037   0.19504588
4330.00   0.59196083   0.19468228
4332.00   0.51767826   0.19453174
4334.00   0.48551102   0.19519110
4336.00   0.78432187   0.19429461
4338.00   0.75848572   0.19151430
4340.00   0.82645829   0.19120538
4342.00   1.71495222   0.19662742
4344.00   0.85769207   0.20577408
4346.00   0.58704929   0.21557209
4348.00   0.85888174   0.21632447
4350.00   0.84400085   0.20983881
4352.00   0.78206018   0.20915954
4354.00   -0.06478451   0.29057394
4356.00   1.03931305   0.43795336
4358.00   3.00571029   0.48871934
4360.00   2.47988622   0.40759220
4362.00   0.97649827   0.30534790
4364.00   0.94338105   0.23784613
4366.00   1.45413968   0.21977533
4368.00   0.64899965   0.21386612
4370.00   0.45255834   0.21278787
4372.00   0.92411525   0.21763028
4374.00   0.97420797   0.21952714
4376.00   0.99026197   0.21372201
4378.00   0.82801637   0.20731630
4380.00   0.92840572   0.20119241
4382.00   1.39229503   0.19587434
4384.00   0.62939765   0.19161164
4386.00   0.90276866   0.19418625
4388.00   0.79110009   0.19669699
4390.00   0.71560352   0.19919204
4392.00   0.80234582   0.19907944
4394.00   1.44266211   0.20166862
4396.00   2.26766069   0.20453542
4398.00   1.71726312   0.20823383
4400.00   1.64244058   0.20927241
4402.00   0.78506744   0.20252585
4404.00   1.04967792   0.19679856
4406.00   0.88097282   0.19587773
4408.00   1.01582976   0.19834416
4410.00   1.26876133   0.20182790
4412.00   1.40001089   0.20549294
4414.00   0.40375238   0.20671823
4416.00   0.68901965   0.20609476
4418.00   0.97345813   0.20478634
4420.00   1.37473863   0.20349399
4422.00   0.96667993   0.20131760
4424.00   1.03489179   0.20039955
4426.00   0.76171437   0.20006273
4428.00   0.87224363   0.20056613
4430.00   0.99446211   0.20047115
4432.00   1.63277725   0.19943788
4434.00   1.02101435   0.19768670
4436.00   0.55142742   0.19884032
4438.00   0.47974308   0.20010216
4440.00   1.04652528   0.19893721
4442.00   0.91852483   0.19823035
4444.00   0.42324989   0.19828514
4446.00   1.16602392   0.19926228
4448.00   1.53068161   0.19987935
4450.00   0.73457465   0.19792477
4452.00   0.62250414   0.19604752
4454.00   0.70112832   0.19398919
4456.00   0.73884672   0.19290494
4458.00   1.26389504   0.19403921
4460.00   1.13500987   0.19419319
4462.00   1.43266568   0.19535844
4464.00   0.87942492   0.19630232
4466.00   1.21661705   0.19597502
4468.00   0.61055883   0.19484229
4470.00   1.08001027   0.19564917
4472.00   0.78022446   0.19659133
4474.00   1.33082910   0.19811059
4476.00   1.54840279   0.19840117
4478.00   1.57264142   0.19658196
4480.00   1.01305179   0.19454117
4482.00   1.04280784   0.19505033
4484.00   1.44558028   0.19682931
4486.00   0.78360743   0.19660877
4488.00   0.74938802   0.19514663
4490.00   0.79605422   0.19608618
4492.00   0.89587156   0.19705474
4494.00   0.80662219   0.19632532
4496.00   1.13265951   0.19767108
4498.00   0.95905725   0.19726681
4500.00   1.27735043   0.19686529
4502.00   0.61000217   0.19547339
4504.00   0.75018644   0.19529268
4506.00   1.03945947   0.19488446
4508.00   0.77597579   0.19338080
4510.00   0.94578194   0.19259561
4512.00   1.25361074   0.19135388
4514.00   0.79881386   0.18917693
4516.00   0.91568125   0.18804985
4518.00   0.87549303   0.18763306
4520.00   1.00092783   0.18675160
4522.00   1.16273375   0.18547784
4524.00   1.09029902   0.18283698
4526.00   0.86846756   0.17915882
4528.00   0.98351408   0.17791550
4530.00   1.11848668   0.17812065
4532.00   0.96509283   0.17746527
4534.00   1.10519946   0.17767262
4536.00   0.84185916   0.17767698
4538.00   0.53008218   0.17764660
4540.00   0.69040891   0.17894261
4542.00   0.58910548   0.17988909
4544.00   0.45781889   0.17926740
4546.00   0.81739721   0.17664405
4548.00   1.17624135   0.17419706
4550.00   0.76846091   0.17176597
4552.00   1.12177074   0.17149220
4554.00   1.14679587   0.17249314
4556.00   1.30560599   0.17406744
4558.00   0.61023134   0.17323428
4560.00   1.03891889   0.17266124
4562.00   0.86719820   0.17036733
4564.00   0.57430831   0.16811156
4566.00   0.96871224   0.16797963
4568.00   0.59978749   0.16695582
4570.00   0.98341783   0.16791207
4572.00   0.87669015   0.16889114
4574.00   0.71594330   0.16886222
4576.00   0.84140082   0.16717256
4578.00   0.69663843   0.16360610
4580.00   1.41045732   0.16122754
4582.00   1.10106439   0.15910096
4584.00   0.97277074   0.15794463
4586.00   1.41915226   0.15957614
4588.00   0.70485827   0.15904664
4590.00   1.02834541   0.15998224
4592.00   0.95878556   0.15954532
4594.00   1.38770792   0.15992011
4596.00   0.75094845   0.15839814
4598.00   0.92900045   0.15685077
4600.00   1.01044473   0.15519639
4602.00   1.21026707   0.15548584
4604.00   0.98738243   0.15512401
4606.00   1.08812427   0.15607429
4608.00   1.30835109   0.15720419
4610.00   1.65463289   0.15715767
4612.00   1.33620824   0.15507763
4614.00   1.54222028   0.15389442
4616.00   1.37110897   0.15232457
4618.00   1.67900097   0.15236035
4620.00   1.54866953   0.15234176
4622.00   1.59559895   0.15165017
4624.00   1.64531813   0.15168365
4626.00   1.58326910   0.15113247
4628.00   1.15308415   0.15036746
4630.00   1.20643052   0.14984430
4632.00   1.41454747   0.14936074
4634.00   1.45667614   0.14836686
4636.00   1.56286887   0.14735293
4638.00   1.50817088   0.14699778
4640.00   1.21046156   0.14583301
4642.00   1.52659871   0.14577939
4644.00   1.26514516   0.14393157
4646.00   1.36558324   0.14317574
4648.00   1.04869748   0.14309539
4650.00   1.48819852   0.14477745
4652.00   1.62919830   0.14548717
4654.00   1.65900307   0.14481514
4656.00   1.31796771   0.14551555
4658.00   1.27301790   0.14671619
4660.00   1.55837728   0.14840280
4662.00   1.70506706   0.14968588
4664.00   1.79071762   0.15074331
4666.00   1.63999834   0.15214800
4668.00   1.87860363   0.15432312
4670.00   1.48249048   0.15471755
4672.00   1.00750213   0.15287669
4674.00   1.44017456   0.15138158
4676.00   1.59913593   0.14898613
4678.00   1.47274072   0.14598044
4680.00   1.42097843   0.14423733
4682.00   1.43767346   0.14334985
4684.00   1.25211711   0.14133216
4686.00   1.29498850   0.14119838
4688.00   1.64951849   0.14100542
4690.00   1.53573076   0.14038467
4692.00   1.34676437   0.13999595
4694.00   1.49213513   0.13997539
4696.00   1.68390458   0.13870154
4698.00   1.93639669   0.13768295
4700.00   1.59282357   0.13620190
4702.00   1.72558955   0.13699277
4704.00   1.67451028   0.13836477
4706.00   1.57338164   0.13992968
4708.00   1.51294445   0.14101032
4710.00   1.93392043   0.14210628
4712.00   1.75604206   0.14138124
4714.00   1.89897818   0.14040970
4716.00   1.52601546   0.14001145
4718.00   1.43877270   0.13975825
4720.00   1.71155159   0.14082497
4722.00   1.72532496   0.14078475
4724.00   1.90232346   0.14159202
4726.00   1.37973167   0.14717875
4728.00   1.40758741   0.15133622
4730.00   1.38243625   0.15253406
4732.00   1.52201460   0.15510850
4734.00   1.54904978   0.15810982
4736.00   1.41454332   0.15976362
4738.00   1.58033829   0.16494039
4740.00   2.00269375   0.17148059
4742.00   1.96278423   0.17243155
4744.00   1.40639824   0.16558237
4746.00   1.39221919   0.15488328
4748.00   1.66831733   0.14852982
4750.00   1.29295130   0.14626392
4752.00   1.18151997   0.14579877
4754.00   1.28665347   0.14274734
4756.00   1.76509597   0.13975838
4758.00   1.48761187   0.13649348
4760.00   1.70486482   0.13469337
4762.00   1.62334883   0.13272220
4764.00   1.61407678   0.13142117
4766.00   1.62236605   0.13118937
4768.00   1.59502450   0.13071312
4770.00   1.66372367   0.13089696
4772.00   1.74496183   0.13176918
4774.00   1.56518965   0.13341400
4776.00   1.30608836   0.13762058
4778.00   1.34936134   0.14074160
4780.00   1.20383310   0.13930985
4782.00   1.39717426   0.13658009
4784.00   1.26506008   0.13306400
4786.00   1.35303322   0.13145010
4788.00   1.13072533   0.13186959
4790.00   1.37335651   0.13330266
4792.00   1.52854953   0.13398098
4794.00   1.19056529   0.13312798
4796.00   1.36171157   0.13195614
4798.00   1.23164903   0.13051248
4800.00   1.27769753   0.13037712
4802.00   1.21536642   0.13009257
4804.00   1.15035366   0.13021785
4806.00   0.94800505   0.13030579
4808.00   1.20823935   0.13120630
4810.00   1.28694959   0.13170439
4812.00   0.95705507   0.13200544
4814.00   0.94736575   0.13185487
4816.00   0.83123275   0.13196571
4818.00   1.07211625   0.13298351
4820.00   1.06338908   0.13316825
4822.00   0.83061951   0.13299950
4824.00   0.92211109   0.13419361
4826.00   1.20334004   0.13544251
4828.00   0.94374184   0.13448673
4830.00   0.75770453   0.13510375
4832.00   0.95029741   0.13538594
4834.00   1.17615417   0.13524763
4836.00   0.97330767   0.13600120
4838.00   0.85378633   0.13813914
4840.00   0.78702356   0.13725756
4842.00   0.49188966   0.13471022
4844.00   0.71176055   0.13454534
4846.00   0.53345026   0.13466835
4848.00   0.87053731   0.13488466
4850.00   0.89243617   0.13497991
4852.00   0.86243126   0.13317114
4854.00   1.07659520   0.13122079
4856.00   0.96407720   0.12809045
4858.00   0.66476281   0.12424894
4860.00   0.96097855   0.12353382
4862.00   1.03156769   0.12531905
4864.00   0.97867070   0.12786916
4866.00   0.60601934   0.12839605
4868.00   0.86186398   0.12838340
4870.00   1.26868179   0.12873839
4872.00   0.99038598   0.12855296
4874.00   1.02414545   0.13018727
4876.00   1.47733742   0.13249640
4878.00   1.45194974   0.13327535
4880.00   1.14640056   0.13247483
4882.00   1.15269438   0.13088247
4884.00   1.37479578   0.12923172
4886.00   1.27141725   0.12739874
4888.00   1.21113159   0.12574281
4890.00   1.59286214   0.12676222
4892.00   1.64515591   0.12835762
4894.00   1.72763330   0.13007094
4896.00   1.68539541   0.12986082
4898.00   1.86703838   0.12974848
4900.00   1.63886948   0.12843701
4902.00   1.53827981   0.12730503
4904.00   1.85897029   0.12826430
4906.00   1.56984940   0.12831400
4908.00   1.56261032   0.12844777
4910.00   1.27484017   0.12782977
4912.00   1.63636359   0.12826894
4914.00   1.65760631   0.12828858
4916.00   1.71165750   0.12696677
4918.00   1.56860098   0.12500443
4920.00   1.61951738   0.12480346
4922.00   3.03892429   0.12997733
4924.00   3.29679534   0.13092782
4926.00   2.99748183   0.12977557
4928.00   2.35973242   0.12682694
4930.00   1.91169912   0.12447577
4932.00   1.29454015   0.12284860
4934.00   1.19314347   0.12211339
4936.00   1.14995258   0.12133802
4938.00   1.28356939   0.12225023
4940.00   1.23913392   0.12332746
4942.00   1.14606387   0.12284080
4944.00   0.97887424   0.12232654
4946.00   1.34245530   0.12175567
4948.00   1.17950604   0.12141752
4950.00   1.47930168   0.12378363
4952.00   1.43661060   0.12526399
4954.00   1.46594114   0.12423704
4956.00   1.53656336   0.12248983
4958.00   1.72663163   0.12206512
4960.00   1.53501292   0.12278847
4962.00   1.69911512   0.12339663
4964.00   1.94557590   0.12396089
4966.00   1.62890967   0.12417196
4968.00   1.63933297   0.12559166
4970.00   1.89938546   0.12923828
4972.00   1.69147490   0.13288364
4974.00   2.16933026   0.13750180
4976.00   1.88720285   0.14254118
4978.00   1.95392377   0.14870739
4980.00   2.05786211   0.15369990
4982.00   1.84798160   0.15496047
4984.00   1.84115714   0.15393520
4986.00   1.89118558   0.15010210
4988.00   1.77540855   0.14542530
4990.00   2.04927354   0.14179339
4992.00   2.06267754   0.13744220
4994.00   1.86193917   0.13266655
4996.00   1.78577968   0.12814334
4998.00   1.47098379   0.12414564
5000.00   1.83349344   0.12232357
5002.00   1.74733478   0.12009204
5004.00   1.69960419   0.11821893
5006.00   1.62450457   0.11716449
5008.00   1.41264181   0.11606958
5010.00   1.35203650   0.11472370
5012.00   1.27816257   0.11409949
5014.00   1.20237280   0.11430541
5016.00   1.37662640   0.11593065
5018.00   1.21117251   0.11835900
5020.00   1.41778198   0.11964305
5022.00   1.78853508   0.11794661
5024.00   1.55140214   0.11667592
5026.00   1.30717296   0.11621869
5028.00   1.41391486   0.11815580
5030.00   1.04232627   0.11889165
5032.00   1.15510135   0.11807279
5034.00   1.17706820   0.11640300
5036.00   1.16373964   0.11480332
5038.00   1.51555475   0.11359410
5040.00   1.14049303   0.11224842
5042.00   1.50003090   0.11398947
5044.00   1.30200051   0.11473817
5046.00   1.51126696   0.11555291
5048.00   1.49282929   0.11533414
5050.00   1.56343617   0.11603201
5052.00   1.64205314   0.11619044
5054.00   1.37913459   0.11582447
5056.00   1.46269738   0.11650268
5058.00   1.71645135   0.11748003
5060.00   2.04502106   0.12015739
5062.00   1.74244530   0.12248141
5064.00   1.53803126   0.12432934
5066.00   1.78981358   0.12768917
5068.00   2.22038670   0.13244104
5070.00   3.03243147   0.13410516
5072.00   2.97989489   0.13225967
5074.00   2.91710334   0.13018716
5076.00   2.78982497   0.12839849
5078.00   2.36245929   0.13412156
5080.00   2.10942435   0.14590813
5082.00   1.99189770   0.15771973
5084.00   2.66208456   0.17110031
5086.00   2.21935630   0.17117302
5088.00   2.01446448   0.15415604
5090.00   1.73606120   0.14382434
5092.00   1.60000165   0.13473882
5094.00   1.89467545   0.13156758
5096.00   1.69818875   0.13298376
5098.00   2.02765925   0.13571732
5100.00   1.72954995   0.13440253
5102.00   2.05104435   0.13057591
5104.00   1.59550577   0.12625445
5106.00   1.78859508   0.12364136
5108.00   1.86508201   0.12234924
5110.00   1.48528600   0.12193396
5112.00   1.63668289   0.12367996
5114.00   1.60481289   0.12538889
5116.00   2.11927274   0.12640836
5118.00   2.11125592   0.12489049
5120.00   1.50174581   0.12186975
5122.00   1.76626991   0.12036642
5124.00   2.04141619   0.11950232
5126.00   1.64634263   0.11850060
5128.00   1.71136313   0.11853156
5130.00   1.21355854   0.11779891
5132.00   1.43548218   0.11872510
5134.00   1.53777886   0.11859876
5136.00   1.41461541   0.11825595
5138.00   1.50598299   0.11800480
5140.00   1.39121913   0.11810140
5142.00   1.53489791   0.11880994
5144.00   1.39597710   0.11988271
5146.00   1.59959057   0.12311043
5148.00   1.16176983   0.12570260
5150.00   1.25561737   0.12988266
5152.00   1.04785474   0.13275676
5154.00   0.98113277   0.13324946
5156.00   1.03549347   0.13166239
5158.00   1.21818981   0.12911290
5160.00   1.10654231   0.12621216
5162.00   1.33064539   0.12335636
5164.00   1.08383023   0.11909696
5166.00   0.91131789   0.11653420
5168.00   0.73492994   0.11453211
5170.00   1.00728615   0.11383701
5172.00   0.96860837   0.11437584
5174.00   1.02819638   0.11745660
5176.00   0.96730257   0.11979475
5178.00   0.87071622   0.12033252
5180.00   0.98290064   0.11862981
5182.00   1.13173389   0.11767006
5184.00   0.90137090   0.11764122
5186.00   0.75989827   0.11881807
5188.00   0.88691147   0.11970055
5190.00   0.86689976   0.12066051
5192.00   1.02583103   0.12177188
5194.00   1.04007903   0.12349382
5196.00   0.97730292   0.12568981
5198.00   1.08021132   0.12761075
5200.00   1.42723783   0.13020426
5202.00   1.22817815   0.12736005
5204.00   1.29363271   0.12605313
5206.00   1.55108514   0.12756906
5208.00   1.07161809   0.12991244
5210.00   1.17725256   0.13166381
5212.00   1.10890366   0.13069388
5214.00   1.02430096   0.12957255
5216.00   1.28235364   0.13131716
5218.00   1.19234020   0.13287512
5220.00   1.48050834   0.13236691
5222.00   1.49122685   0.13049709
5224.00   1.29656617   0.12820123
5226.00   1.78175603   0.12772404
5228.00   1.67031327   0.12849594
5230.00   1.73338819   0.12849559
5232.00   1.32537616   0.12744692
5234.00   1.57016985   0.12871624
5236.00   1.45339321   0.12998377
5238.00   1.62221566   0.13122460
5240.00   1.49339150   0.13091733
5242.00   1.32051567   0.13044875
5244.00   1.68401529   0.13086530
5246.00   1.60205210   0.13003248
5248.00   1.24261190   0.12865909
5250.00   1.20985604   0.12850180
5252.00   1.18400417   0.12877958
5254.00   1.50087414   0.13184431
5256.00   1.67507924   0.13529411
5258.00   1.73332829   0.13599686
5260.00   1.63048579   0.13349780
5262.00   1.51558968   0.13097455
5264.00   1.48585570   0.12895377
5266.00   1.64296282   0.12740571
5268.00   1.38756374   0.12596124
5270.00   1.55348172   0.12656719
5272.00   1.48483130   0.12714172
5274.00   1.25552609   0.12799386
5276.00   1.42518659   0.12960244
5278.00   1.37837658   0.12994785
5280.00   1.34199236   0.13002417
5282.00   1.58092758   0.13257856
5284.00   1.46945659   0.13467138
5286.00   1.39950739   0.13494011
5288.00   1.53511314   0.13476996
5290.00   1.51325136   0.13456904
5292.00   1.46978043   0.13365520
5294.00   1.28106105   0.13299982
5296.00   1.58722340   0.13320240
5298.00   1.57565646   0.13365785
5300.00   1.40006165   0.13375827
5302.00   1.44726396   0.13410008
5304.00   1.28761442   0.13358383
5306.00   1.65600182   0.13495201
5308.00   1.41864191   0.13528377
5310.00   1.44675840   0.13613150
5312.00   1.62392588   0.13683399
5314.00   1.55316826   0.13585759
5316.00   1.70793871   0.13608545
5318.00   1.66740489   0.13563248
5320.00   1.70561858   0.13540301
5322.00   1.45832500   0.13491107
5324.00   1.49936128   0.13458639
5326.00   1.54746577   0.13442322
5328.00   1.31780824   0.13456260
5330.00   1.19319498   0.13566185
5332.00   1.28301772   0.13680055
5334.00   1.06124526   0.13703407
5336.00   1.29797806   0.13898010
5338.00   1.27475774   0.14171891
5340.00   1.41777874   0.14471308
5342.00   1.15658908   0.14499305
5344.00   1.49128450   0.14657197
5346.00   1.45582436   0.15111521
5348.00   1.53678738   0.15473193
5350.00   1.57606314   0.15394453
5352.00   1.69655982   0.15729758
5354.00   1.60104703   0.16030611
5356.00   1.47561382   0.15916587
5358.00   1.34187240   0.15457368
5360.00   1.67162804   0.15206675
5362.00   1.36657262   0.14811036
5364.00   1.93166185   0.14685129
5366.00   1.53589628   0.14481348
5368.00   1.80582140   0.14455046
5370.00   1.37743062   0.14560730
5372.00   1.89308055   0.15125970
5374.00   1.78235077   0.15460794
5376.00   1.50772453   0.15504211
5378.00   1.76847498   0.15510842
5380.00   2.02811240   0.15560243
5382.00   1.69859478   0.15428817
5384.00   1.50920198   0.15454035
5386.00   1.69536970   0.15614372
5388.00   1.56114272   0.16040623
5390.00   1.71898602   0.16510935
5392.00   1.86345299   0.16656375
5394.00   1.88196235   0.16583103
5396.00   1.94279518   0.16525062
5398.00   1.94259933   0.16559400
5400.00   1.54752598   0.16555706
5402.00   1.77148343   0.16626363
5404.00   1.82268635   0.16742470
5406.00   1.79595362   0.16973366
5408.00   1.73574180   0.17240757
5410.00   1.61385721   0.17681154
5412.00   2.02671010   0.18410661
5414.00   2.16786001   0.19020016
5416.00   1.74583765   0.19338001
5418.00   1.70560169   0.19537004
5420.00   1.82808307   0.19778090
5422.00   2.16180505   0.19846182
5424.00   1.77817414   0.19785396
5426.00   1.25548670   0.19594699
5428.00   1.76888166   0.19620723
5430.00   1.46367096   0.19635324
5432.00   2.07635987   0.08698873
5434.00   2.12199438   0.08808330
5436.00   2.48842561   0.08679311
5438.00   2.59739721   0.08678649
5440.00   2.18985486   0.08527466
5442.00   1.63627422   0.08229565
5444.00   1.46426791   0.08370023
5446.00   1.48632210   0.08975351
5448.00   1.37123504   0.09335918
5450.00   1.09179354   0.09229271
5452.00   1.05366068   0.09510039
5454.00   1.36714277   0.10679450
5456.00   1.67778057   0.11831145
5458.00   1.53168833   0.12276397
5460.00   1.11299373   0.12476774
5462.00   1.10429177   0.12686982
5464.00   1.39975142   0.13016267
5466.00   1.61536169   0.12733035
5468.00   1.97468323   0.11878170
5470.00   2.26449126   0.10720532
5472.00   2.33930939   0.09434602
5474.00   2.35643792   0.08107419
5476.00   2.44473433   0.07596544
5478.00   2.64782643   0.08048116
5480.00   2.58723974   0.08140837
5482.00   2.19551450   0.08300018
5484.00   1.80070615   0.08310187
5486.00   1.54720598   0.08069179
5488.00   1.39361751   0.07808442
5490.00   1.49457473   0.07684839
5492.00   1.90435237   0.07591537
5494.00   2.03405046   0.07459091
5496.00   1.95268053   0.07478664
5498.00   1.85727000   0.07360903
5500.00   1.77057987   0.06820011
5502.00   1.69691718   0.06409893
5504.00   1.63308418   0.06787645
5506.00   1.58072901   0.07654926
5508.00   1.59661365   0.07932120
5510.00   1.65652841   0.07996794
5512.00   1.75747013   0.07873096
5514.00   1.97766483   0.07371155
5516.00   2.15302706   0.06931249
5518.00   2.17236489   0.06956634
5520.00   2.06596935   0.07312916
5522.00   1.96967715   0.07344726
5524.00   1.77389115   0.07177675
5526.00   1.73690081   0.06996620
5528.00   1.82821995   0.06823743
5530.00   1.93874615   0.06706158
5532.00   1.96973532   0.06674310
5534.00   1.93323541   0.06698624
5536.00   1.80100423   0.06619179
5538.00   1.47653961   0.06440146
5540.00   1.40778524   0.06354888
5542.00   1.62456632   0.06344915
5544.00   1.76909798   0.06367810
5546.00   1.76491696   0.06394481
5548.00   1.72413844   0.06428922
5550.00   1.72760737   0.06519796
5552.00   1.73020959   0.06711475
5554.00   1.78602630   0.06755382
5556.00   1.94749433   0.06615570
5558.00   2.04887617   0.06481308
5560.00   1.99270630   0.06443865
5562.00   1.83817989   0.06426635
5564.00   1.73934466   0.06493100
5566.00   1.60346317   0.06691761
5568.00   1.67319006   0.06991069
5570.00   2.05980253   0.07407156
5572.00   2.26237059   0.07744611
5574.00   2.25051785   0.08084242
5576.00   2.11421144   0.08211898
5578.00   1.86399388   0.08106502
5580.00   1.45538008   0.07908070
5582.00   1.34766060   0.08016360
5584.00   1.50504196   0.08514620
5586.00   1.63152704   0.08493110
5588.00   1.70001504   0.08228955
5590.00   1.80045915   0.07864416
5592.00   1.98469907   0.07222539
5594.00   2.14614135   0.06454416
5596.00   2.20166576   0.06212298
5598.00   2.17543977   0.06464638
5600.00   2.16996402   0.06488294
5602.00   2.11912906   0.06483046
5604.00   2.06680918   0.06446043
5606.00   2.04454798   0.06406759
5608.00   2.07325411   0.06481148
5610.00   2.14995831   0.06611455
5612.00   2.30840933   0.06793323
5614.00   2.35110533   0.06930784
5616.00   2.30078673   0.07183546
5618.00   2.20196927   0.07213191
5620.00   2.07994467   0.06886010
5622.00   1.96710104   0.06569295
5624.00   1.98195893   0.06760616
5626.00   2.16206753   0.07251575
5628.00   2.22443163   0.07400190
5630.00   2.17143905   0.07422423
5632.00   2.09157681   0.07398993
5634.00   2.09319723   0.07041115
5636.00   2.11463273   0.06554348
5638.00   2.05510151   0.06409958
5640.00   1.87865299   0.06204849
5642.00   1.88347870   0.06437760
5644.00   2.10898036   0.07332629
5646.00   2.24920225   0.07935719
5648.00   2.17269671   0.07856269
5650.00   2.03989077   0.07526357
5652.00   2.00536150   0.07444416
5654.00   1.93664491   0.07166910
5656.00   1.88133675   0.07123452
5658.00   1.85840464   0.07336119
5660.00   1.81623274   0.07428236
5662.00   1.70164353   0.07221472
5664.00   1.59337640   0.07184925
5666.00   1.51167560   0.07425942
5668.00   1.43986428   0.07674581
5670.00   1.52941513   0.07873353
5672.00   1.84012955   0.08158594
5674.00   1.90654284   0.08437376
5676.00   1.65374142   0.08481190
5678.00   1.48898506   0.08706492
5680.00   1.58747774   0.09337246
5682.00   1.76187479   0.10119316
5684.00   1.76266390   0.10883577
5686.00   1.69427222   0.11706584
5688.00   1.71683490   0.11777409
5690.00   1.79545045   0.11030093
5692.00   1.83624238   0.10580262
5694.00   1.95874280   0.10306702
5696.00   2.01880103   0.09943121
5698.00   1.82940304   0.09340342
5700.00   1.45413375   0.08547198
5702.00   1.47633350   0.08118327
5704.00   1.94382137   0.08004994
5706.00   2.09994286   0.07930826
5708.00   1.88362765   0.07982570
5710.00   1.70307118   0.08050097
5712.00   1.87449682   0.08103659
5714.00   2.23068988   0.08094424
5716.00   2.26099634   0.07815606
5718.00   2.06057996   0.07153090
5720.00   1.99964643   0.06818252
5722.00   2.00197351   0.06806653
5724.00   2.00945890   0.06810291
5726.00   2.08165407   0.06624878
5728.00   2.16585100   0.06211645
5730.00   2.02308273   0.06612721
5732.00   1.65251410   0.07762058
5734.00   1.43178022   0.08347878
5736.00   1.22015458   0.08624469
5738.00   1.25058091   0.08633800
5740.00   1.62259352   0.08064611
5742.00   2.09411365   0.06830431
5744.00   2.28475142   0.06398477
5746.00   2.31974125   0.06660195
5748.00   2.29450953   0.06718164
5750.00   2.13622469   0.06697638
5752.00   2.05049616   0.06595230
5754.00   1.92130429   0.06468094
5756.00   1.79753441   0.06611811
5758.00   1.80080682   0.07064294
5760.00   1.86733389   0.07624315
5762.00   1.93729496   0.07986245
5764.00   2.10155988   0.08309619
5766.00   2.12869012   0.08614242
5768.00   2.02589411   0.08873024
5770.00   1.90915197   0.08808600
5772.00   1.75374246   0.08296407
5774.00   1.58916634   0.07293227
5776.00   1.36935717   0.07938511
5778.00   0.98619148   0.10172968
5780.00   0.80246323   0.10855279
5782.00   0.90887293   0.09900561
5784.00   1.11537427   0.08778029
5786.00   1.20877331   0.08674678
5788.00   1.28748214   0.08768802
5790.00   1.62514895   0.08644533
5792.00   2.25594079   0.08589277
5794.00   2.41639924   0.08416147
5796.00   2.09223032   0.07878967
5798.00   1.87464476   0.07585452
5800.00   1.70261741   0.07576302
5802.00   1.67272532   0.07628329
5804.00   1.96103990   0.07685640
5806.00   2.51913095   0.07743255
5808.00   2.63923228   0.07577687
5810.00   2.33965397   0.07011777
5812.00   2.20896673   0.06900581
5814.00   2.32115865   0.07166125
5816.00   2.53781068   0.07566862
5818.00   2.56890118   0.07840649
5820.00   2.50173855   0.07999610
5822.00   2.32440472   0.07825590
5824.00   1.95701593   0.07122563
5826.00   1.68546188   0.06808364
5828.00   1.45708597   0.06899624
5830.00   1.33425862   0.07117998
5832.00   1.43249279   0.07161715
5834.00   1.76995379   0.07026902
5836.00   1.84467369   0.07098819
5838.00   1.72976226   0.07344724
5840.00   1.64553016   0.07659628
5842.00   1.66670698   0.08034476
5844.00   1.72704959   0.08086567
5846.00   1.68236709   0.08015461
5848.00   1.60577315   0.07955478
5850.00   1.45247042   0.07872833
5852.00   1.16440469   0.07723916
5854.00   0.91780502   0.07796295
5856.00   0.65906605   0.08148535
5858.00   0.57544903   0.08340141
5860.00   0.65144429   0.08260334
5862.00   0.74975693   0.08126462
5864.00   0.73765537   0.08424345
5866.00   0.68466963   0.08991937
5868.00   0.84489629   0.09187264
5870.00   1.31728542   0.09171834
5872.00   1.50080085   0.09114496
5874.00   1.53869188   0.07967611
5876.00   1.41126776   0.08060966
5878.00   0.89649558   0.10559348
5880.00   0.12816931   0.13618207
5882.00   -0.00889805   0.16789604
5884.00   0.38087022   0.21247546
5886.00   0.57214329   0.22508131
5888.00   0.73634729   0.21515476
5890.00   0.78380010   0.21175473
5892.00   0.92543477   0.21079260
5894.00   1.48259455   0.20652085
5896.00   2.05799603   0.19608900
5898.00   2.97051942   0.17608165
5900.00   2.96947575   0.15785257
5902.00   1.91739392   0.14335736
5904.00   1.10063612   0.12838134
5906.00   1.02813485   0.10897963
5908.00   1.36667347   0.09155183
5910.00   1.38332403   0.08220201
5912.00   1.26057988   0.08261468
5914.00   1.27481717   0.08266999
5916.00   1.51462966   0.08749962
5918.00   1.59400225   0.08877073
5920.00   1.37144148   0.08808125
5922.00   1.13613564   0.08892130
5924.00   1.34083706   0.09005396
5926.00   1.84281999   0.09095495
5928.00   2.03437614   0.09034907
5930.00   2.05241704   0.08675612
5932.00   2.05244321   0.08623013
5934.00   1.85044736   0.09207210
5936.00   1.70312595   0.09751334
5938.00   1.89253777   0.09520726
5940.00   2.28835022   0.08782624
5942.00   2.34296823   0.08229814
5944.00   2.10748017   0.07387699
5946.00   2.02731484   0.07144726
5948.00   2.07757723   0.07760537
5950.00   2.19908106   0.08125810
5952.00   2.26650041   0.07991377
5954.00   2.30646962   0.07725496
5956.00   2.37490761   0.07597051
5958.00   2.43463373   0.07493866
5960.00   2.45932031   0.07418056
5962.00   2.51824915   0.07401740
5964.00   2.61397326   0.07327405
5966.00   2.64918363   0.07192217
5968.00   2.62615013   0.07091901
5970.00   2.52090299   0.07023214
5972.00   2.31422585   0.06915455
5974.00   2.14823920   0.07127639
5976.00   1.91394573   0.07930936
5978.00   1.89032787   0.08117465
5980.00   2.07123727   0.07653583
5982.00   2.22576594   0.07155688
5984.00   2.31594634   0.06972872
5986.00   2.40302646   0.06913722
5988.00   2.43146825   0.06798158
5990.00   2.35270047   0.06661081
5992.00   2.35403311   0.06573826
5994.00   2.42628944   0.06656798
5996.00   2.51048195   0.06861269
5998.00   2.49816525   0.06836817
6000.00   2.36242425   0.06554497
6002.00   2.25719213   0.06378699
6004.00   2.10599679   0.06147073
6006.00   2.08655816   0.06176493
6008.00   2.23241150   0.06398701
6010.00   2.26325607   0.06701698
6012.00   2.04050422   0.07159140
6014.00   1.78972739   0.07561841
6016.00   1.92093772   0.07544406
6018.00   2.35069847   0.07138358
6020.00   2.59031463   0.06968049
6022.00   2.85806704   0.06966310
6024.00   3.01194835   0.07019715
6026.00   2.85161245   0.06791164
6028.00   2.49581516   0.06282969
6030.00   2.26491618   0.06039984
6032.00   2.02996063   0.05937302
6034.00   1.98146349   0.05850712
6036.00   2.18110251   0.05793208
6038.00   2.24598646   0.05805352
6040.00   2.20635390   0.05891011
6042.00   2.17732704   0.06011755
6044.00   2.15197235   0.06147086
6046.00   2.11747485   0.06352916
6048.00   2.06863946   0.06438658
6050.00   1.96655077   0.06464664
6052.00   1.96128792   0.06322246
6054.00   2.04185289   0.06092043
6056.00   2.05077028   0.06080563
6058.00   2.02117229   0.05985832
6060.00   2.00360984   0.05628502
6062.00   2.01956922   0.05615030
6064.00   2.07548708   0.05905223
6066.00   2.11357439   0.06096797
6068.00   2.14505458   0.06325789
6070.00   2.07562649   0.06405213
6072.00   1.93168128   0.06080370
6074.00   1.81934065   0.05500616
6076.00   1.87021697   0.05354899
6078.00   2.09211534   0.05531067
6080.00   2.10683793   0.05536469
6082.00   1.93818533   0.05382625
6084.00   1.81064558   0.05299014
6086.00   1.72732586   0.05412528
6088.00   1.66869950   0.05617128
6090.00   1.70865470   0.05784625
6092.00   1.85049897   0.06035384
6094.00   1.87927985   0.06058761
6096.00   1.75400943   0.05693098
6098.00   1.76212370   0.05571149
6100.00   1.99207854   0.05782519
6102.00   2.22805393   0.06162275
6104.00   2.26546824   0.06682896
6106.00   2.21417212   0.07289065
6108.00   2.09020096   0.07480546
6110.00   1.76913828   0.07352560
6112.00   1.61149806   0.07276208
6114.00   1.56923270   0.07087041
6116.00   1.56548470   0.06920282
6118.00   1.66091001   0.06791792
6120.00   1.87870598   0.06617988
6122.00   2.02063191   0.06551543
6124.00   2.17793894   0.06584256
6126.00   2.18126178   0.06600547
6128.00   2.02469802   0.06693158
6130.00   1.94587594   0.06731933
6132.00   1.96767700   0.06476383
6134.00   2.03708106   0.06019029
6136.00   2.02242762   0.05816902
6138.00   1.93023121   0.05742959
6140.00   1.87603116   0.05609383
6142.00   1.90100312   0.05438290
6144.00   1.91692549   0.05430924
6146.00   1.81854290   0.05529649
6148.00   1.67060220   0.05655968
6150.00   1.59791028   0.05744554
6152.00   1.56864005   0.05797903
6154.00   1.65937805   0.06124886
6156.00   1.96305853   0.06878780
6158.00   2.04905748   0.07187398
6160.00   1.98703122   0.07142542
6162.00   1.89453894   0.06893203
6164.00   1.78742427   0.06425362
6166.00   1.67254204   0.05661961
6168.00   1.63615859   0.05256163
6170.00   1.68656635   0.05144428
6172.00   1.66684544   0.05043197
6174.00   1.61127442   0.05079412
6176.00   1.58334070   0.05190935
6178.00   1.60209835   0.05192602
6180.00   1.64160341   0.05206236
6182.00   1.70406139   0.05267078
6184.00   1.82513082   0.05360859
6186.00   1.87677318   0.05301017
6188.00   1.84888035   0.05250752
6190.00   1.82662231   0.05268096
6192.00   1.82539153   0.05157737
6194.00   1.78824478   0.04982656
6196.00   1.80320805   0.04899556
6198.00   1.86619174   0.04822530
6200.00   1.96433634   0.04859689
6202.00   2.15200448   0.05040369
6204.00   2.21014512   0.05276956
6206.00   2.03239518   0.05534958
6208.00   1.81354266   0.05697166
6210.00   1.82737064   0.05742917
6212.00   1.94080240   0.05732047
6214.00   1.98442662   0.05705059
6216.00   2.05068392   0.05628572
6218.00   2.10986567   0.05475644
6220.00   2.07447314   0.05270660
6222.00   2.03030717   0.05055210
6224.00   1.96993458   0.04840759
6226.00   1.83197421   0.04631284
6228.00   1.84561831   0.04553276
6230.00   2.04948407   0.04574713
6232.00   2.15017366   0.04672627
6234.00   2.15161443   0.04945102
6236.00   2.13076448   0.05142773
6238.00   2.09968650   0.05151877
6240.00   2.06028515   0.05075678
6242.00   2.01872867   0.04985474
6244.00   1.95387906   0.04800787
6246.00   1.91343498   0.04690943
6248.00   1.92649752   0.04628768
6250.00   1.94042456   0.04659888
6252.00   1.90412813   0.04829852
6254.00   1.82248783   0.04992946
6256.00   1.77917933   0.04970331
6258.00   1.76069140   0.04804500
6260.00   1.70976007   0.04944013
6262.00   1.59376442   0.05455654
6264.00   1.54485691   0.05531509
6266.00   1.58936781   0.05181939
6268.00   1.64338589   0.04785726
6270.00   1.61095911   0.04701599
6272.00   1.51951087   0.04855899
6274.00   1.55808955   0.04874378
6276.00   1.75619191   0.04812511
6278.00   1.84951895   0.04696001
6280.00   1.81690407   0.04617874
6282.00   1.77151024   0.04652181
6284.00   1.82847285   0.04737954
6286.00   1.95994461   0.04833553
6288.00   1.96314639   0.04967443
6290.00   1.81629413   0.05217521
6292.00   1.77857208   0.05305469
6294.00   1.85383618   0.05244106
6296.00   1.92588460   0.05275467
6298.00   1.99101537   0.05395636
6300.00   2.09760159   0.05523152
6302.00   2.07966506   0.05619320
6304.00   1.90661705   0.05780935
6306.00   1.86477119   0.05779007
6308.00   1.99407303   0.05527550
6310.00   2.13603103   0.05192361
6312.00   2.17049479   0.04897497
6314.00   2.14418387   0.04637988
6316.00   2.15891433   0.04646248
6318.00   2.19434953   0.04917408
6320.00   2.14001656   0.04902627
6322.00   1.95829886   0.04635358
6324.00   1.87849736   0.04502345
6326.00   1.87599921   0.04423152
6328.00   1.89104342   0.04418058
6330.00   1.97606391   0.04557715
6332.00   2.15169024   0.04788487
6334.00   2.19804156   0.04785840
6336.00   2.13139570   0.04564964
6338.00   2.07029253   0.04463411
6340.00   1.99451643   0.04436617
6342.00   1.91343808   0.04474435
6344.00   1.87500256   0.04402513
6346.00   1.87993163   0.04191279
6348.00   1.85813767   0.04102106
6350.00   1.83046067   0.04081885
6352.00   1.77436429   0.04144504
6354.00   1.66421115   0.04256341
6356.00   1.61320537   0.04395166
6358.00   1.72189569   0.04653661
6360.00   1.92556554   0.04906847
6362.00   1.94613928   0.04988896
6364.00   1.85080117   0.05036788
6366.00   1.81013340   0.05075243
6368.00   1.75169575   0.04872271
6370.00   1.67263937   0.04455054
6372.00   1.68083090   0.04225213
6374.00   1.74412364   0.04173372
6376.00   1.72802585   0.04124528
6378.00   1.63932425   0.04120740
6380.00   1.66944188   0.04141989
6382.00   1.84930819   0.04225829
6384.00   1.98435700   0.04299628
6386.00   2.02309448   0.04371452
6388.00   2.01974344   0.04520790
6390.00   1.97110271   0.04495263
6392.00   1.82826787   0.04221614
6394.00   1.74799412   0.04076437
6396.00   1.71441150   0.04037521
6398.00   1.71747905   0.04111820
6400.00   1.70215213   0.04224540
6402.00   1.68875432   0.04302578
6404.00   1.72917098   0.04341071
6406.00   1.81319529   0.04347244
6408.00   1.83646584   0.04302536
6410.00   1.83125508   0.04165256
6412.00   1.78687477   0.04135846
6414.00   1.66465276   0.04165140
6416.00   1.61037922   0.04128855
6418.00   1.68958777   0.04022937
6420.00   1.81267709   0.03898816
6422.00   1.79123658   0.03905731
6424.00   1.65315986   0.04021670
6426.00   1.59134781   0.04109492
6428.00   1.55829751   0.04248202
6430.00   1.57000864   0.04256371
6432.00   1.64380825   0.04126330
6434.00   1.74167711   0.04014335
6436.00   1.72989774   0.03957040
6438.00   1.62584978   0.03893571
6440.00   1.57429779   0.03878195
6442.00   1.56454307   0.03976623
6444.00   1.56096572   0.04018031
6446.00   1.53857100   0.04007279
6448.00   1.49683791   0.04017701
6450.00   1.43235564   0.04028161
6452.00   1.32762200   0.04072452
6454.00   1.27578568   0.04032562
6456.00   1.27330029   0.03811293
6458.00   1.27332526   0.03728153
6460.00   1.26503867   0.03900361
6462.00   1.26725543   0.04141952
6464.00   1.28836244   0.04400931
6466.00   1.33695740   0.04724869
6468.00   1.29474145   0.04675001
6470.00   1.15121320   0.04151921
6472.00   1.06333748   0.03968266
6474.00   1.02764875   0.04063494
6476.00   0.97324631   0.04126546
6478.00   0.90378836   0.04204229
6480.00   0.82318476   0.04286810
6482.00   0.78601557   0.04150187
6484.00   0.78627557   0.03743687
6486.00   0.79173329   0.03589721
6488.00   0.80034319   0.03656461
6490.00   0.81055328   0.03733142
6492.00   0.80109969   0.03810949
6494.00   0.79130521   0.03874659
6496.00   0.81712022   0.03852335
6498.00   0.86018586   0.03759925
6500.00   0.84709910   0.03819551
6502.00   0.79537153   0.04021202
6504.00   0.77466747   0.04114248
6506.00   0.73304752   0.04203247
6508.00   0.67954040   0.04297545
6510.00   0.65421274   0.04246346
6512.00   0.62620854   0.04126179
6514.00   0.65749499   0.04042017
6516.00   0.76642776   0.03924301
6518.00   0.87220258   0.03782008
6520.00   0.97307649   0.03760979
6522.00   1.03074485   0.03823322
6524.00   1.00183547   0.03835849
6526.00   0.90052414   0.03820063
6528.00   0.85702848   0.03798292
6530.00   0.81254676   0.03728079
6532.00   0.83216041   0.03735000
6534.00   0.92989263   0.03851150
6536.00   1.03401449   0.04015701
6538.00   1.14189780   0.04093111
6540.00   1.24763048   0.04135392
6542.00   1.22465867   0.04151285
6544.00   1.07021108   0.04109533
6546.00   1.02161342   0.04014691
6548.00   1.01093718   0.03896615
6550.00   1.05946338   0.03858038
6552.00   1.20458317   0.03835220
6554.00   1.36288524   0.03829129
6556.00   1.44575542   0.03802519
6558.00   1.48609561   0.03748475
6560.00   1.52153438   0.03705119
6562.00   1.52743584   0.03633546
6564.00   1.56615359   0.03674491
6566.00   1.58687508   0.03828170
6568.00   1.60192901   0.04041378
6570.00   1.70337862   0.04166825
6572.00   1.85696894   0.04255452
6574.00   2.03395438   0.04388302
6576.00   2.28646481   0.04539756
6578.00   2.48664916   0.04668674
6580.00   2.60173988   0.04940342
6582.00   2.76044512   0.05211146
6584.00   2.98276496   0.05232328
6586.00   3.23362517   0.05102318
6588.00   3.45073128   0.05016132
6590.00   3.67181683   0.04807356
6592.00   3.81698966   0.04796194
6594.00   3.87601364   0.05022438
6596.00   4.02918029   0.05426074
6598.00   4.31844008   0.05794361
6600.00   4.58678198   0.06060451
6602.00   4.59941208   0.06235912
6604.00   4.39776790   0.06358267
6606.00   4.32693315   0.06356978
6608.00   4.23722386   0.06194577
6610.00   4.27323747   0.06060730
6612.00   4.44016027   0.05951807
6614.00   4.47617304   0.05835559
6616.00   4.45400441   0.05632504
6618.00   4.38213325   0.05293424
6620.00   4.44465280   0.05373529
6622.00   4.62957072   0.06032851
6624.00   4.81606042   0.06285488
6626.00   4.84620512   0.06087802
6628.00   4.74240923   0.05640380
6630.00   4.73529029   0.05243090
6632.00   4.71762824   0.04833729
6634.00   4.76633716   0.04695238
6636.00   4.77705884   0.04705470
6638.00   5.06196070   0.04894688
6640.00   5.61707091   0.05330759
6642.00   6.27891731   0.05970511
6644.00   6.91362238   0.06897783
6646.00   7.59657383   0.07976880
6648.00   7.86871839   0.08311748
6650.00   7.85662341   0.08299519
6652.00   7.66683912   0.07940055
6654.00   7.16002274   0.06812066
6656.00   6.54093409   0.05526883
6658.00   5.97112226   0.04641010
6660.00   5.34489918   0.04002025
6662.00   5.03507781   0.03806508
6664.00   4.96515107   0.04280899
6666.00   4.98450065   0.04531052
6668.00   5.21712375   0.04819663
6670.00   5.37408876   0.04955866
6672.00   5.27638030   0.04807231
6674.00   4.99058747   0.04533059
6676.00   4.71664596   0.04551532
6678.00   4.34337139   0.04721772
6680.00   4.12529778   0.04843465
6682.00   4.10161662   0.05025664
6684.00   4.01839221   0.05194480
6686.00   3.77810037   0.05095990
6688.00   3.43461001   0.04896963
6690.00   3.09509766   0.05114995
6692.00   2.70582634   0.05575880
6694.00   2.60974723   0.05571634
6696.00   2.82131577   0.05103740
6698.00   2.98595488   0.04840388
6700.00   3.14535928   0.04635939
6702.00   3.22882795   0.04495320
6704.00   3.26686680   0.04734087
6706.00   3.31982875   0.05285995
6708.00   3.27844954   0.05454740
6710.00   3.12424731   0.05413732
6712.00   3.01625466   0.05489909
6714.00   2.94129002   0.05599592
6716.00   2.82840383   0.05510939
6718.00   2.75428772   0.05415370
6720.00   2.78284895   0.05401947
6722.00   2.80066752   0.05274844
6724.00   2.86162162   0.05033282
6726.00   2.86453974   0.04804052
6728.00   2.80069983   0.04549024
6730.00   2.68073297   0.04347375
6732.00   2.64669192   0.04280080
6734.00   2.70196891   0.04354244
6736.00   2.65016174   0.04515231
6738.00   2.52106154   0.04867492
6740.00   2.38043261   0.04924237
6742.00   2.17035663   0.04661750
6744.00   2.04614067   0.04439178
6746.00   2.07089823   0.04317968
6748.00   2.22956765   0.04172218
6750.00   2.28248608   0.04165673
6752.00   2.26174378   0.04295408
6754.00   2.30374885   0.04281198
6756.00   2.41952527   0.04146530
6758.00   2.47473133   0.04073631
6760.00   2.53481901   0.03909980
6762.00   2.62450433   0.03759616
6764.00   2.57149458   0.03940346
6766.00   2.35662127   0.04448797
6768.00   2.29715061   0.04617578
6770.00   2.33549559   0.04663414
6772.00   2.32523167   0.04523317
6774.00   2.28974581   0.04145768
6776.00   2.30147588   0.03803844
6778.00   2.28344446   0.03703823
6780.00   2.23804253   0.03792395
6782.00   2.20094144   0.03731376
6784.00   2.15019137   0.03541833
6786.00   2.09082603   0.03612780
6788.00   2.00194246   0.04055490
6790.00   1.99519777   0.04255423
6792.00   2.07326818   0.04210363
6794.00   2.23354149   0.04145690
6796.00   2.42526710   0.04051579
6798.00   2.68150651   0.03875137
6800.00   2.76597679   0.03855509
6802.00   2.66779590   0.04056200
6804.00   2.64334476   0.04077872
6806.00   2.68333399   0.03938754
6808.00   2.72880435   0.03752606
6810.00   2.77641475   0.03666651
6812.00   2.84291101   0.03732112
6814.00   2.80029500   0.03986679
6816.00   2.60895765   0.04613672
6818.00   2.51545358   0.04713656
6820.00   2.50168645   0.04445146
6822.00   2.50022137   0.04083273
6824.00   2.48180532   0.03770114
6826.00   2.43434751   0.03537709
6828.00   2.35393226   0.03595825
6830.00   2.22986805   0.04009575
6832.00   2.14439666   0.04106291
6834.00   2.07678109   0.03975273
6836.00   1.99943024   0.03851078
6838.00   1.90112913   0.03866587
6840.00   1.80192858   0.03965549
6842.00   1.77869290   0.03976820
6844.00   1.82816428   0.03944710
6846.00   1.84503174   0.03875172
6848.00   1.83375400   0.03713263
6850.00   1.82190007   0.03682170
6852.00   1.84428263   0.03781065
6854.00   1.89402241   0.03856385
6856.00   1.93184841   0.03848854
6858.00   1.99192435   0.03794987
6860.00   2.00508404   0.03880511
6862.00   1.96757799   0.04101570
6864.00   1.90459788   0.04227478
6866.00   1.84395808   0.04323477
6868.00   1.77304584   0.04460916
6870.00   1.75966978   0.04581887
6872.00   1.82585734   0.04722276
6874.00   1.84951317   0.04650746
6876.00   1.86955172   0.04285845
6878.00   1.83770955   0.04018184
6880.00   1.72625738   0.03931834
6882.00   1.62370104   0.03943794
6884.00   1.60878712   0.03890711
6886.00   1.62810999   0.03812578
6888.00   1.65871489   0.03826368
6890.00   1.72353506   0.03939955
6892.00   1.77513564   0.03981746
6894.00   1.82862842   0.03985917
6896.00   1.87304723   0.03936599
6898.00   1.85791457   0.03779606
6900.00   1.81206346   0.03606792
6902.00   1.85328108   0.03668049
6904.00   1.97506434   0.03917112
6906.00   1.98401523   0.03968194
6908.00   1.86690694   0.03856546
6910.00   1.80238879   0.03833499
6912.00   1.79949325   0.03941422
6914.00   1.80100268   0.04030533
6916.00   1.83462727   0.04011081
6918.00   1.92195129   0.03972754
6920.00   1.97114730   0.03961917
6922.00   2.00097293   0.03944824
6924.00   1.98914868   0.03865492
6926.00   1.95665717   0.03777107
6928.00   1.91667223   0.03666155
6930.00   1.85241163   0.03575861
6932.00   1.77388281   0.03530806
6934.00   1.74561381   0.03518052
6936.00   1.76893628   0.03555294
6938.00   1.75577843   0.03551684
6940.00   1.72317964   0.03511941
6942.00   1.71577203   0.03512220
6944.00   1.72657442   0.03616317
6946.00   1.73771071   0.03756350
6948.00   1.79151291   0.03743216
6950.00   1.91729850   0.03591664
6952.00   1.93978441   0.03563231
6954.00   1.85865682   0.03637905
6956.00   1.79263687   0.03630574
6958.00   1.73481834   0.03571108
6960.00   1.67930740   0.03517503
6962.00   1.65003848   0.03429591
6964.00   1.63127601   0.03292226
6966.00   1.62802827   0.03248037
6968.00   1.65451676   0.03298906
6970.00   1.68883300   0.03309443
6972.00   1.73825616   0.03301483
6974.00   1.79098850   0.03320315
6976.00   1.80953211   0.03373392
6978.00   1.80221891   0.03456268
6980.00   1.79783577   0.03487001
6982.00   1.78848839   0.03492726
6984.00   1.79051805   0.03467670
6986.00   1.77280229   0.03388693
6988.00   1.73286456   0.03299611
6990.00   1.72331733   0.03315320
6992.00   1.73620087   0.03465688
6994.00   1.74273342   0.03525845
6996.00   1.75652546   0.03512114
6998.00   1.75805503   0.03540484
7000.00   1.72466660   0.03658836
7002.00   1.70143938   0.03671283
7004.00   1.74752378   0.03651298
7006.00   1.84555006   0.03688965
7008.00   1.87420541   0.03628105
7010.00   1.86758024   0.03459975
7012.00   1.82070267   0.03399992
7014.00   1.72170669   0.03407460
7016.00   1.67690039   0.03358120
7018.00   1.64619160   0.03444005
7020.00   1.60628331   0.03719672
7022.00   1.64282650   0.03783759
7024.00   1.75105655   0.03742680
7026.00   1.81648612   0.03693655
7028.00   1.87808722   0.03609014
7030.00   1.90587914   0.03462959
7032.00   1.86463410   0.03382428
7034.00   1.78293830   0.03369562
7036.00   1.73481488   0.03339543
7038.00   1.68786985   0.03330813
7040.00   1.66351599   0.03412211
7042.00   1.65740865   0.03641023
7044.00   1.68067372   0.03706851
7046.00   1.71060121   0.03663259
7048.00   1.74026465   0.03580987
7050.00   1.78557175   0.03485538
7052.00   1.83175534   0.03379487
7054.00   1.83212966   0.03339920
7056.00   1.77184707   0.03354333
7058.00   1.77285433   0.03357625
7060.00   1.81382036   0.03386561
7062.00   1.85851395   0.03434081
7064.00   1.89394248   0.03459836
7066.00   1.88132572   0.03461873
7068.00   1.86496282   0.03447961
7070.00   1.84145403   0.03404326
7072.00   1.83176684   0.03377739
7074.00   1.79188079   0.03371187
7076.00   1.77514160   0.03369987
7078.00   1.78266424   0.03333414
7080.00   1.77633154   0.03308253
7082.00   1.78859538   0.03419837
7084.00   1.83685535   0.03649426
7086.00   1.83024144   0.03734945
7088.00   1.71834648   0.03705447
7090.00   1.67823267   0.03717969
7092.00   1.77412552   0.03759454
7094.00   1.90931451   0.03760549
7096.00   1.97741920   0.03729496
7098.00   2.03781378   0.03681654
7100.00   2.01810861   0.03651652
7102.00   1.88006729   0.03629213
7104.00   1.78167480   0.03589647
7106.00   1.72893161   0.03553397
7108.00   1.71350926   0.03489946
7110.00   1.73560101   0.03361029
7112.00   1.79288417   0.03220317
7114.00   1.80215716   0.03278120
7116.00   1.78008336   0.03565184
7118.00   1.77108508   0.03646827
7120.00   1.74057919   0.03619851
7122.00   1.72317386   0.03575719
7124.00   1.76576251   0.03502644
7126.00   1.82699043   0.03428411
7128.00   1.85652399   0.03454262
7130.00   1.88503742   0.03570868
7132.00   1.89553624   0.03586757
7134.00   1.85608333   0.03562836
7136.00   1.81625926   0.03535182
7138.00   1.82682240   0.03419850
7140.00   1.85076499   0.03318568
7142.00   1.82821602   0.03387960
7144.00   1.79315680   0.03574315
7146.00   1.75347775   0.03608303
7148.00   1.66234159   0.03553233
7150.00   1.60318965   0.03523831
7152.00   1.61423916   0.03478287
7154.00   1.65008086   0.03439089
7156.00   1.71609968   0.03447597
7158.00   1.84060395   0.03453295
7160.00   1.91609734   0.03457921
7162.00   1.98213977   0.03441322
7164.00   1.97265226   0.03545624
7166.00   1.88638383   0.03726139
7168.00   1.80421591   0.03894998
7170.00   1.78772491   0.03901034
7172.00   1.82147074   0.03753604
7174.00   1.80775356   0.03721818
7176.00   1.76410520   0.03759213
7178.00   1.72691435   0.03758498
7180.00   1.66799223   0.03749974
7182.00   1.64497113   0.03763823
7184.00   1.71748465   0.03772764
7186.00   1.81867981   0.03773606
7188.00   1.84622622   0.03752466
7190.00   1.83580863   0.03697016
7192.00   1.83975279   0.03720089
7194.00   1.81618249   0.03800347
7196.00   1.81392467   0.03881910
7198.00   1.84992915   0.04024144
7200.00   1.88188893   0.04100156
7202.00   1.90432441   0.03980406
7204.00   1.93390882   0.03696331
7206.00   1.92278481   0.03531857
7208.00   1.86788082   0.03365866
7210.00   1.81407630   0.03286629
7212.00   1.72307193   0.03334516
7214.00   1.61275780   0.03355206
7216.00   1.56313753   0.03334659
7218.00   1.56318283   0.03357004
7220.00   1.61848927   0.03535685
7222.00   1.76880240   0.03887607
7224.00   1.84892505   0.04063182
7226.00   1.91206121   0.04252702
7228.00   1.93453336   0.04321015
7230.00   1.89356542   0.04122032
7232.00   1.82761991   0.03838439
7234.00   1.79266095   0.03786432
7236.00   1.76785243   0.03884740
7238.00   1.72318214   0.03881602
7240.00   1.66238993   0.03961540
7242.00   1.65255648   0.04058682
7244.00   1.69972354   0.04117480
7246.00   1.76754874   0.04194523
7248.00   1.84517926   0.04182221
7250.00   1.97625560   0.04104254
7252.00   2.02593881   0.03999022
7254.00   1.98964649   0.03817027
7256.00   1.91791010   0.03626353
7258.00   1.82538587   0.03535151
7260.00   1.71557558   0.03521551
7262.00   1.66936046   0.03472339
7264.00   1.66823137   0.03397846
7266.00   1.68634939   0.03403803
7268.00   1.74080956   0.03471292
7270.00   1.78470343   0.03604790
7272.00   1.80724251   0.03821775
7274.00   1.80322540   0.04044494
7276.00   1.82626629   0.04199355
7278.00   1.88732088   0.04374125
7280.00   1.91783267   0.04398897
7282.00   1.92168260   0.04261579
7284.00   1.92333132   0.04100714
7286.00   1.91832954   0.03889302
7288.00   1.85977554   0.03645426
7290.00   1.81236678   0.03556255
7292.00   1.79789734   0.03602477
7294.00   1.79119104   0.03556369
7296.00   1.79579103   0.03415676
7298.00   1.78643525   0.03437957
7300.00   1.77684462   0.03577302
7302.00   1.79341024   0.03795413
7304.00   1.80855471   0.04142532
7306.00   1.84352130   0.04445995
7308.00   1.85879952   0.04513443
7310.00   1.84476125   0.04436010
7312.00   1.80863351   0.04409944
7314.00   1.78368074   0.04316068
7316.00   1.77772784   0.04222103
7318.00   1.76389527   0.04099075
7320.00   1.77513254   0.03812256
7322.00   1.76901668   0.03601707
7324.00   1.75382632   0.03447050
7326.00   1.73959166   0.03426553
7328.00   1.72768253   0.03525012
7330.00   1.69761807   0.03601040
7332.00   1.66834253   0.03715813
7334.00   1.67300016   0.03799409
7336.00   1.70192558   0.03800292
7338.00   1.74845105   0.03778632
7340.00   1.77357662   0.03788999
7342.00   1.77192211   0.03811246
7344.00   1.80286098   0.03808522
7346.00   1.88651824   0.03790485
7348.00   1.96962357   0.03753082
7350.00   2.02021033   0.03777373
7352.00   2.05618560   0.03806962
7354.00   2.03146851   0.03700764
7356.00   1.92974752   0.03389417
7358.00   1.88068616   0.03347998
7360.00   1.85402232   0.03520313
7362.00   1.82322794   0.03666246
7364.00   1.80453366   0.03785345
7366.00   1.81429446   0.03873541
7368.00   1.83608973   0.03839441
7370.00   1.88025641   0.03675288
7372.00   1.86745334   0.03629473
7374.00   1.79653448   0.03691361
7376.00   1.76939416   0.03683480
7378.00   1.79071593   0.03596293
7380.00   1.83141273   0.03474128
7382.00   1.85695916   0.03427926
7384.00   1.88978064   0.03436753
7386.00   1.89589894   0.03477061
7388.00   1.86332113   0.03589844
7390.00   1.83161390   0.03654159
7392.00   1.83263022   0.03586134
7394.00   1.87809491   0.03413442
7396.00   1.92802447   0.03381847
7398.00   1.99201256   0.03466379
7400.00   2.00068814   0.03536877
7402.00   1.93930674   0.03637925
7404.00   1.92443681   0.03681148
7406.00   1.95876539   0.03741239
7408.00   1.99190426   0.03717890
7410.00   2.00522691   0.03556814
7412.00   2.01634532   0.03340270
7414.00   2.00092959   0.03261511
7416.00   1.94570905   0.03277282
7418.00   1.93515021   0.03273894
7420.00   1.97272044   0.03296611
7422.00   1.97942501   0.03322708
7424.00   1.94695967   0.03349230
7426.00   1.90266299   0.03423640
7428.00   1.92265844   0.03486928
7430.00   2.00973517   0.03524665
7432.00   2.04251856   0.03584139
7434.00   2.04540074   0.03765322
7436.00   1.98016733   0.03836868
7438.00   1.85792679   0.03683904
7440.00   1.74815691   0.03460547
7442.00   1.69408381   0.03413730
7444.00   1.68170214   0.03462480
7446.00   1.68518353   0.03432913
7448.00   1.71220917   0.03332580
7450.00   1.73227298   0.03310418
7452.00   1.78857386   0.03362823
7454.00   1.85510683   0.03415982
7456.00   1.90998614   0.03419059
7458.00   1.97265810   0.03408393
7460.00   2.00026757   0.03493340
7462.00   2.01384771   0.03746276
7464.00   1.97248352   0.03772915
7466.00   1.85603231   0.03594925
7468.00   1.76446176   0.03465536
7470.00   1.76069063   0.03467765
7472.00   1.83351636   0.03525400
7474.00   1.81760478   0.03529475
7476.00   1.72481626   0.03510551
7478.00   1.69450796   0.03503142
7480.00   1.74568313   0.03505712
7482.00   1.78127515   0.03514096
7484.00   1.80680507   0.03511290
7486.00   1.83739328   0.03508291
7488.00   1.82275712   0.03572250
7490.00   1.76053536   0.03697613
7492.00   1.76563329   0.03687567
7494.00   1.82733387   0.03545678
7496.00   1.88582683   0.03508636
7498.00   1.93697518   0.03486888
7500.00   1.97229463   0.03421177
7502.00   1.99848706   0.03394894
7504.00   2.01978558   0.03389818
7506.00   2.00038695   0.03370601
7508.00   1.92646903   0.03336889
7510.00   1.87408239   0.03334161
7512.00   1.82091248   0.03331496
7514.00   1.77653092   0.03339861
7516.00   1.76337761   0.03404515
7518.00   1.76099867   0.03510919
7520.00   1.75414437   0.03606066
7522.00   1.76110744   0.03738278
7524.00   1.74952120   0.03806466
7526.00   1.69344705   0.03769670
7528.00   1.68146414   0.03748747
7530.00   1.76196903   0.03811400
7532.00   1.90980422   0.03955248
7534.00   1.93083489   0.04049285
7536.00   1.83509642   0.04165929
7538.00   1.83591396   0.04056704
7540.00   1.95848674   0.03672069
7542.00   2.02791226   0.03523296
7544.00   1.99809355   0.03758670
7546.00   1.96086305   0.04103368
7548.00   1.94744194   0.04066160
7550.00   1.92638248   0.03783649
7552.00   1.89421272   0.03652464
7554.00   1.87041831   0.03566219
7556.00   1.85840541   0.03446226
7558.00   1.84461981   0.03414140
7560.00   1.83165526   0.03451592
7562.00   1.81051123   0.03524465
7564.00   1.79146206   0.03663699
7566.00   1.78805995   0.03744644
7568.00   1.80672401   0.03784150
7570.00   1.79236126   0.03819406
7572.00   1.76352692   0.03855794
7574.00   1.72124505   0.03912055
7576.00   1.68483353   0.03910065
7578.00   1.65523636   0.03799091
7580.00   1.65288228   0.03733486
7582.00   1.66058761   0.03657486
7584.00   1.69835103   0.03691802
7586.00   1.79272890   0.03770377
7588.00   1.91578692   0.03889148
7590.00   2.00676143   0.03999947
7592.00   2.07579494   0.04175898
7594.00   2.09528673   0.04964752
7596.00   2.06422526   0.05987839
7598.00   2.04601628   0.07149557
7600.00   2.04861462   0.08675645
7602.00   1.97679371   0.09792480
7604.00   1.82403946   0.10411781
7606.00   1.64506721   0.10385779
7608.00   1.55277008   0.09711621
7610.00   1.49013484   0.08038758
7612.00   1.49058855   0.06990239
7614.00   1.58775592   0.06288465
7616.00   1.70994204   0.05796376
7618.00   1.79687417   0.05535267
7620.00   1.82703847   0.05482831
7622.00   1.83753163   0.05520976
7624.00   1.82732564   0.05740206
7626.00   1.83322042   0.05939116
7628.00   1.83225805   0.06236791
7630.00   1.84781623   0.06374870
7632.00   1.87033743   0.06293846
7634.00   1.90250087   0.06339451
7636.00   2.03235781   0.06804732
7638.00   2.23624361   0.07316012
7640.00   2.20393956   0.07098975
7642.00   1.93305701   0.05982229
7644.00   1.77830374   0.05461253
7646.00   1.59566271   0.05266165
7648.00   1.50882322   0.05091289
7650.00   1.64136153   0.04865751
7652.00   1.85533810   0.04637675
7654.00   1.88885081   0.04450519
7656.00   1.82448959   0.04295112
7658.00   1.77258021   0.04205875
7660.00   1.63308978   0.04197175
7662.00   1.55987090   0.04177816
7664.00   1.63620120   0.04149506
7666.00   1.78452808   0.04083201
7668.00   1.82311761   0.04053421
7670.00   1.78524935   0.04108630
7672.00   1.82953501   0.04126098
7674.00   1.99235559   0.04080388
7676.00   2.08086705   0.03915645
7678.00   2.03301841   0.03725095
7680.00   1.95319933   0.03585367
7682.00   1.94253522   0.03565146
7684.00   1.94103765   0.03534648
7686.00   1.97950947   0.03683398
7688.00   2.10720193   0.04153986
7690.00   2.18801600   0.04507298
7692.00   2.17872286   0.04463356
7694.00   2.10867745   0.04156358
7696.00   2.04925525   0.04058903
7698.00   1.98728067   0.04006364
7700.00   1.86153734   0.03921047
7702.00   1.59944165   0.03765819
7704.00   1.49905503   0.03795474
7706.00   1.58668238   0.03942744
7708.00   1.67088562   0.04110433
7710.00   1.70147264   0.04319178
7712.00   1.75962025   0.04545167
7714.00   1.74039567   0.04582842
7716.00   1.63718653   0.04493538
7718.00   1.59928536   0.04398079
7720.00   1.61433625   0.04156689
7722.00   1.61712629   0.03992959
7724.00   1.65589041   0.04071375
7726.00   1.73183310   0.04173785
7728.00   1.75065488   0.04093039
7730.00   1.73920435   0.03898178
7732.00   1.72010529   0.03772909
7734.00   1.66532111   0.03614122
7736.00   1.64006621   0.03547612
7738.00   1.65981334   0.03592196
7740.00   1.69353735   0.03673348
7742.00   1.70680594   0.03848957
7744.00   1.69892210   0.04198337
7746.00   1.69763118   0.04352237
7748.00   1.69780797   0.04345761
7750.00   1.71082568   0.04301261
7752.00   1.74445748   0.04273057
7754.00   1.80171740   0.04206726
7756.00   1.79991192   0.04163079
7758.00   1.73769355   0.04135936
7760.00   1.69774741   0.04067157
7762.00   1.67105639   0.03864934
7764.00   1.62872910   0.03886612
7766.00   1.55335385   0.04235110
7768.00   1.46954250   0.04518222
7770.00   1.41145331   0.04428138
7772.00   1.35329294   0.04116761
7774.00   1.34845561   0.04072897
7776.00   1.39660800   0.04181544
7778.00   1.47746056   0.04170707
7780.00   1.58170509   0.04078304
7782.00   1.67079759   0.04081960
7784.00   1.76703447   0.04156625
7786.00   1.85129231   0.04218974
7788.00   1.87693822   0.04279693
7790.00   1.86725563   0.04370929
7792.00   1.81680268   0.04361543
7794.00   1.68635136   0.04234949
7796.00   1.58071345   0.04140504
7798.00   1.51475817   0.03991125
7800.00   1.43109721   0.03730870
7802.00   1.40676445   0.03781171
7804.00   1.47658801   0.04205765
7806.00   1.49004978   0.04389728
7808.00   1.43831897   0.04391683
7810.00   1.41923052   0.04393942
7812.00   1.44227916   0.04387683
7814.00   1.42119581   0.04250593
7816.00   1.37631810   0.04391890
7818.00   1.29008257   0.04812993
7820.00   1.27569002   0.04866590
7822.00   1.29792529   0.04639187
7824.00   1.39862692   0.04460337
7826.00   1.57939017   0.04294355
7828.00   1.72310513   0.04131768
7830.00   1.74975210   0.03980162
7832.00   1.67087680   0.03888865
7834.00   1.68033129   0.03880658
7836.00   1.71507883   0.03948548
7838.00   1.81533843   0.03982426
7840.00   1.98779905   0.04040176
7842.00   2.15111005   0.04140930
7844.00   2.29620540   0.04252085
7846.00   2.39637637   0.04364087
7848.00   2.42554975   0.04497850
7850.00   2.41397309   0.04649594
7852.00   2.36133826   0.04693913
7854.00   2.18438959   0.04629216
7856.00   2.08305961   0.04658220
7858.00   2.10816306   0.04680874
7860.00   2.11473024   0.04625796
7862.00   2.07596362   0.04537680
7864.00   2.04225296   0.04386124
7866.00   1.97884512   0.04285330
7868.00   1.85080457   0.04161954
7870.00   1.77084750   0.04161026
7872.00   1.71661788   0.04331315
7874.00   1.65210968   0.04594095
7876.00   1.61287630   0.04735545
7878.00   1.59799236   0.04870276
7880.00   1.61787105   0.04826158
7882.00   1.70435995   0.04534604
7884.00   1.72378975   0.04267819
7886.00   1.66376799   0.04136244
7888.00   1.61031103   0.04231143
7890.00   1.64521915   0.04342347
7892.00   1.78380030   0.04370005
7894.00   1.84741080   0.04355626
7896.00   1.87422419   0.04343158
7898.00   1.91888738   0.04208916
7900.00   2.00912219   0.03697774
7902.00   2.04115492   0.03506221
7904.00   2.02995968   0.03850831
7906.00   1.97399575   0.04369097
7908.00   1.85571468   0.04822361
7910.00   1.65227556   0.05394691
7912.00   1.54458910   0.05479007
7914.00   1.48292035   0.05003605
7916.00   1.49687636   0.04700843
7918.00   1.59474599   0.04609396
7920.00   1.69980782   0.04592578
7922.00   1.73939943   0.04611490
7924.00   1.74700505   0.04674234
7926.00   1.79279971   0.04629136
7928.00   1.87662607   0.04536032
7930.00   1.92551214   0.04368269
7932.00   1.96161538   0.04027898
7934.00   1.98808718   0.03744711
7936.00   1.94880444   0.03656731
7938.00   1.83931869   0.03687262
7940.00   1.79511255   0.03675322
7942.00   1.79430801   0.03668978
7944.00   1.77675837   0.03693052
7946.00   1.75615019   0.03785004
7948.00   1.71417439   0.03860323
7950.00   1.61977637   0.03835468
7952.00   1.48078620   0.03737180
7954.00   1.43922764   0.03849379
7956.00   1.46638459   0.04105396
7958.00   1.51670873   0.04324076
7960.00   1.60151321   0.04618342
7962.00   1.67304510   0.04814452
7964.00   1.73645455   0.04729002
7966.00   1.73810613   0.04405685
7968.00   1.68335742   0.04252242
7970.00   1.57462895   0.04152574
7972.00   1.54073066   0.04076944
7974.00   1.54088944   0.04038380
7976.00   1.55774248   0.04029509
7978.00   1.61961174   0.03962962
7980.00   1.69742095   0.03918408
7982.00   1.69253278   0.03972932
7984.00   1.61858511   0.04077841
7986.00   1.63332957   0.04304784
7988.00   1.76782572   0.04845805
7990.00   1.78593916   0.04940989
7992.00   1.67578089   0.04627326
7994.00   1.61096609   0.04341118
7996.00   1.65684491   0.04203294
7998.00   1.73889351   0.04067032
8000.00   1.77074903   0.03949922
8002.00   1.78098971   0.03807462
8004.00   1.79538685   0.03837511
8006.00   1.79356611   0.04121369
8008.00   1.84000695   0.04371651
8010.00   1.88603026   0.04345032
8012.00   1.86024159   0.04132609
8014.00   1.81996524   0.04220069
8016.00   1.75462455   0.04481114
8018.00   1.68115634   0.04707919
8020.00   1.56631255   0.05098719
8022.00   1.51330638   0.05188603
8024.00   1.48486149   0.04829361
8026.00   1.43658334   0.04365256
8028.00   1.38129753   0.04162825
8030.00   1.30741894   0.04049001
8032.00   1.29068124   0.04037219
8034.00   1.32706904   0.04279892
8036.00   1.37472111   0.04398585
8038.00   1.45617211   0.04371139
8040.00   1.56054032   0.04192831
8042.00   1.58912617   0.03968146
8044.00   1.55516559   0.03695489
8046.00   1.54830992   0.03661059
8048.00   1.51638311   0.03830555
8050.00   1.57450444   0.03996489
8052.00   1.72088200   0.04260171
8054.00   1.80581433   0.04411534
8056.00   1.83745909   0.04376159
8058.00   1.88667971   0.04260200
8060.00   1.91548473   0.04147509
8062.00   1.91980594   0.03951628
8064.00   1.90906644   0.03817685
8066.00   1.87978828   0.03700742
8068.00   1.87850338   0.03737892
8070.00   1.93378395   0.04016219
8072.00   2.00616103   0.04308902
8074.00   1.95553082   0.04328709
8076.00   1.80460447   0.04170990
8078.00   1.67127955   0.04050241
8080.00   1.50235552   0.03838011
8082.00   1.39871091   0.03724270
8084.00   1.38436735   0.03719386
8086.00   1.39785188   0.03745474
8088.00   1.39425224   0.03758559
8090.00   1.41581357   0.03794429
8092.00   1.42670512   0.03784460
8094.00   1.39688587   0.03691795
8096.00   1.38975304   0.03665809
8098.00   1.45758283   0.03696101
8100.00   1.58625376   0.03790851
8102.00   1.70234048   0.04059024
8104.00   1.82907021   0.04504656
8106.00   1.94882059   0.04755928
8108.00   2.12030911   0.04991876
8110.00   2.17568696   0.04996253
8112.00   2.08567750   0.04686999
8114.00   1.97807562   0.04385264
8116.00   1.98399234   0.04439174
8118.00   2.04436237   0.04610103
8120.00   2.02000970   0.04507706
8122.00   1.94674367   0.04174831
8124.00   1.88789034   0.04025716
8126.00   1.78812850   0.03947995
8128.00   1.71625531   0.03936253
8130.00   1.72153240   0.03962161
8132.00   1.75880313   0.04009572
8134.00   1.74501652   0.04079035
8136.00   1.68617100   0.04184589
8138.00   1.66304123   0.04272027
8140.00   1.67087221   0.04359761
8142.00   1.72123682   0.04412500
8144.00   1.79813850   0.04455588
8146.00   1.89813173   0.04426489
8148.00   1.95076787   0.04586560
8150.00   1.97729427   0.05077022
8152.00   1.90198320   0.05208279
8154.00   1.65788406   0.04917594
8156.00   1.53360611   0.04603722
8158.00   1.54654938   0.04470051
8160.00   1.62297446   0.04370164
8162.00   1.71397096   0.04377024
8164.00   1.85663038   0.04519823
8166.00   1.93441844   0.04640757
8168.00   1.99353164   0.04647992
8170.00   1.98392749   0.04946928
8172.00   1.82732940   0.05395662
8174.00   1.77313572   0.06032882
8176.00   1.94778556   0.06906416
8178.00   2.26567268   0.07836324
8180.00   2.49841094   0.08426075
8182.00   2.76653028   0.08827288
8184.00   2.82582259   0.09308745
8186.00   2.72272217   0.09826962
8188.00   2.66942942   0.10258882
8190.00   2.57321882   0.10639208
8192.00   2.44220233   0.10900416
8194.00   2.38388515   0.10950772
8196.00   2.40352345   0.10816215
8198.00   2.07291889   0.10772341
8200.00   1.31075770   0.10974530
8202.00   0.83592917   0.10584184
8204.00   0.58772502   0.09464138
8206.00   0.51746853   0.08107911
8208.00   0.59251551   0.06993008
8210.00   0.83404671   0.05897184
8212.00   0.92501453   0.05217538
8214.00   0.93729514   0.05184384
8216.00   0.93707296   0.05283812
8218.00   0.95542890   0.05686398
8220.00   1.05693811   0.05862148
8222.00   1.24345076   0.05976162
8224.00   1.58264703   0.06309867
8226.00   1.82955605   0.06324264
8228.00   2.08046025   0.06006872
8230.00   2.16608793   0.05661392
8232.00   2.16067785   0.05212707
8234.00   2.06986624   0.04700486
8236.00   1.93698573   0.04553407
8238.00   1.77018845   0.04731977
8240.00   1.63914782   0.04722566
8242.00   1.48997390   0.04693137
8244.00   1.43844235   0.04562073
8246.00   1.50571084   0.04284607
8248.00   1.56134272   0.04150824
8250.00   1.56021339   0.04161759
8252.00   1.49586469   0.04179377
8254.00   1.42573756   0.04201047
8256.00   1.31282026   0.04280845
8258.00   1.31692249   0.04339565
8260.00   1.42393416   0.04357685
8262.00   1.55359560   0.04360303
8264.00   1.68229073   0.04337137
8266.00   1.77963972   0.04271977
8268.00   1.85162842   0.04303534
8270.00   1.91947675   0.04432804
8272.00   1.99779093   0.04648887
8274.00   2.09352148   0.05010275
8276.00   2.12462723   0.05186967
8278.00   2.12089002   0.05282858
8280.00   2.09359241   0.05364011
8282.00   2.07954335   0.05395984
8284.00   2.13931167   0.05394545
8286.00   2.19655633   0.05440105
8288.00   2.28308225   0.05572801
8290.00   2.28157675   0.05531105
8292.00   2.24774396   0.05316955
8294.00   2.15712535   0.05193286
8296.00   2.06947803   0.05181260
8298.00   2.00211388   0.05182447
8300.00   1.91095757   0.05124675
8302.00   1.78425795   0.05057303
8304.00   1.71277553   0.04894320
8306.00   1.68417120   0.04530252
8308.00   1.68098480   0.04289826
8310.00   1.71009344   0.04306138
8312.00   1.72923958   0.04506756
8314.00   1.70913374   0.04741046
8316.00   1.65630263   0.05142812
8318.00   1.62570959   0.05190243
8320.00   1.59034175   0.04896510
8322.00   1.59863341   0.04526029
8324.00   1.62216568   0.04151698
8326.00   1.67300057   0.03911175
8328.00   1.77734244   0.03853534
8330.00   1.90936852   0.03903731
8332.00   2.05677366   0.04169719
8334.00   2.24373722   0.04551706
8336.00   2.43712866   0.05139716
8338.00   2.68464100   0.06166811
8340.00   2.93109453   0.07040625
8342.00   2.91363180   0.07168468
8344.00   2.65522885   0.06874356
8346.00   2.44888365   0.06583604
8348.00   2.17164052   0.05948480
8350.00   1.98535347   0.05525575
8352.00   1.91596687   0.05491875
8354.00   1.82707846   0.05516899
8356.00   1.63380116   0.05448284
8358.00   1.45123625   0.05352242
8360.00   1.42604434   0.05074509
8362.00   1.52359897   0.04484922
8364.00   1.55379224   0.04241451
8366.00   1.59208834   0.04341181
8368.00   1.69618219   0.04547077
8370.00   1.76961648   0.04756510
8372.00   1.81920338   0.04910371
8374.00   1.93044877   0.05008407
8376.00   2.09966552   0.05122656
8378.00   2.13295150   0.05178381
8380.00   2.05518556   0.05125507
8382.00   1.97061878   0.05008989
8384.00   1.81968266   0.04916753
8386.00   1.68346757   0.04799680
8388.00   1.72342426   0.04662149
8390.00   1.90763551   0.04482791
8392.00   2.03245175   0.04586432
8394.00   2.21501017   0.05036223
8396.00   2.25231057   0.05296951
8398.00   2.10339588   0.05387310
8400.00   1.88225245   0.05389353
8402.00   1.71656770   0.05315288
8404.00   1.54146564   0.05107419
8406.00   1.41032553   0.04905252
8408.00   1.30994099   0.04580701
8410.00   1.23798507   0.04458528
8412.00   1.20081818   0.04560681
8414.00   1.17181146   0.04647733
8416.00   1.15151501   0.04586258
8418.00   1.17805070   0.04507503
8420.00   1.14352351   0.04736689
8422.00   1.06901547   0.05231477
8424.00   0.99135149   0.05429180
8426.00   0.87872723   0.05440640
8428.00   0.79653916   0.05524710
8430.00   0.82522377   0.05593582
8432.00   0.86936283   0.05701954
8434.00   0.89773843   0.05685837
8436.00   0.96837714   0.05466030
8438.00   1.07865930   0.05053797
8440.00   1.21194738   0.04264014
8442.00   1.28673768   0.03965849
8444.00   1.32945299   0.04111826
8446.00   1.36555189   0.04661093
8448.00   1.40659076   0.05160929
8450.00   1.38644785   0.05610150
8452.00   1.27845308   0.05786175
8454.00   1.07115185   0.05758016
8456.00   0.95943463   0.05852276
8458.00   0.76673628   0.05959113
8460.00   0.62564766   0.05981819
8462.00   0.72259057   0.06005232
8464.00   0.98326454   0.06131553
8466.00   0.96211147   0.05904595
8468.00   0.68771586   0.05189771
8470.00   0.56195411   0.04636076
8472.00   0.55516711   0.04306501
8474.00   0.56516269   0.04093630
8476.00   0.58391666   0.04004735
8478.00   0.62593272   0.04151135
8480.00   0.60119817   0.04143002
8482.00   0.53414103   0.04021354
8484.00   0.43907964   0.04051907
8486.00   0.25664358   0.04367568
8488.00   0.15808970   0.04486879
8490.00   0.19582149   0.04356064
8492.00   0.33910677   0.04260202
8494.00   0.41110774   0.04344860
8496.00   0.41406719   0.04556890
8498.00   0.47367522   0.04628131
8500.00   0.62086308   0.04549054
8502.00   0.80835834   0.04559121
8504.00   0.98000479   0.04849075
8506.00   1.11882991   0.05155277
8508.00   1.17124975   0.05016719
8510.00   1.14630002   0.04495265
8512.00   1.09226602   0.04268495
8514.00   0.94393060   0.04191579
8516.00   0.88055354   0.04288573
8518.00   0.89807844   0.04612407
8520.00   0.91837069   0.04765106
8522.00   0.93890747   0.04627103
8524.00   0.98073524   0.04314597
8526.00   0.98048922   0.04152730
8528.00   0.94599771   0.04029226
8530.00   0.92376864   0.03972843
8532.00   0.85514721   0.03951792
8534.00   0.83829653   0.04053101
8536.00   0.95148498   0.04218423
8538.00   1.10268480   0.04318133
8540.00   1.19952625   0.04367421
8542.00   1.30316949   0.04388900
8544.00   1.35429311   0.04350076
8546.00   1.32336164   0.04195868
8548.00   1.28919595   0.04125917
8550.00   1.23416495   0.04113181
8552.00   1.13241386   0.04145143
8554.00   1.10326818   0.04214874
8556.00   1.14417973   0.04327401
8558.00   1.20789477   0.04333535
8560.00   1.28573036   0.04230549
8562.00   1.34138650   0.04205981
8564.00   1.45458436   0.04240660
8566.00   1.57631010   0.04268958
8568.00   1.63630533   0.04241216
8570.00   1.66249985   0.04157673
8572.00   1.64908206   0.04118879
8574.00   1.56696224   0.04068015
8576.00   1.51697391   0.04141445
8578.00   1.47098589   0.04346797
8580.00   1.45028168   0.04434982
8582.00   1.44319451   0.04365526
8584.00   1.41756403   0.04205738
8586.00   1.38093305   0.04078944
8588.00   1.32007354   0.03891634
8590.00   1.29657865   0.03838926
8592.00   1.31731433   0.03900237
8594.00   1.35030496   0.03959411
8596.00   1.35426605   0.04031612
8598.00   1.33776414   0.04110617
8600.00   1.32178980   0.04131361
8602.00   1.27412727   0.04116885
8604.00   1.32353616   0.04107111
8606.00   1.49881226   0.04046643
8608.00   1.64347744   0.04023047
8610.00   1.71915019   0.04097769
8612.00   1.72510952   0.04213216
8614.00   1.64497077   0.04293512
8616.00   1.46013474   0.04393651
8618.00   1.36819398   0.04495129
8620.00   1.32929611   0.04609151
8622.00   1.31266153   0.04635846
8624.00   1.33349240   0.04645291
8626.00   1.35940182   0.04631687
8628.00   1.34179980   0.04539387
8630.00   1.30153137   0.04380515
8632.00   1.24927670   0.04318970
8634.00   1.17286110   0.04358605
8636.00   1.10264295   0.04317913
8638.00   1.01829764   0.04225032
8640.00   0.93206403   0.04157252
8642.00   0.88619229   0.04147206
8644.00   0.85813856   0.04230336
8646.00   0.89553225   0.04356409
8648.00   1.02309528   0.04584243
8650.00   1.12066853   0.04677025
8652.00   1.19485682   0.04684225
8654.00   1.21009606   0.04657949
8656.00   1.16527683   0.04592606
8658.00   1.09333554   0.04504777
8660.00   1.13546005   0.04525020
8662.00   1.29139590   0.04637772
8664.00   1.34767914   0.04601500
8666.00   1.29660255   0.04434900
8668.00   1.25186139   0.04348476
8670.00   1.25888562   0.04280832
8672.00   1.25852662   0.04174948
8674.00   1.23885757   0.04127651
8676.00   1.20984611   0.04172220
8678.00   1.23537910   0.04140061
8680.00   1.29017901   0.03991156
8682.00   1.37344694   0.03854969
8684.00   1.52273852   0.03823429
8686.00   1.66863626   0.03866229
8688.00   1.73074067   0.03931633
8690.00   1.75383550   0.04022545
8692.00   1.81918573   0.04016189
8694.00   1.91329461   0.03885911
8696.00   1.96755880   0.03871366
8698.00   2.03504819   0.03916543
8700.00   2.11417264   0.03967137
8702.00   2.14346743   0.04034258
8704.00   2.19586098   0.04067690
8706.00   2.24352431   0.04067673
8708.00   2.30847353   0.03985971
8710.00   2.24870920   0.04046625
8712.00   2.06457067   0.04285716
8714.00   1.96691495   0.04522029
8716.00   2.05715859   0.04479511
8718.00   2.23825431   0.04197746
8720.00   2.25463772   0.04178770
8722.00   2.14855415   0.04338392
8724.00   2.11801153   0.04518943
8726.00   2.12241423   0.04848007
8728.00   2.23050189   0.04772761
8730.00   2.38468677   0.04319051
8732.00   2.51278830   0.03885282
8734.00   2.63250577   0.03799184
8736.00   2.76191449   0.03948514
8738.00   2.85947514   0.04081386
8740.00   2.94244838   0.04360118
8742.00   2.99131739   0.04442652
8744.00   2.97525680   0.04400646
8746.00   2.87355423   0.04351716
8748.00   2.69484115   0.04479511
8750.00   2.36908638   0.04942267
8752.00   2.18971360   0.05091073
8754.00   2.07909691   0.04866085
8756.00   2.10884082   0.04775688
8758.00   2.25475001   0.04989852
8760.00   2.32127571   0.05484735
8762.00   2.16744399   0.06403455
8764.00   1.83630908   0.07650184
8766.00   1.88326693   0.07619155
8768.00   2.29177034   0.06295859
8770.00   2.47327840   0.05631505
8772.00   2.41752827   0.05846938
8774.00   2.33994085   0.06138001
8776.00   2.33441550   0.06242452
8778.00   2.33338082   0.06165552
8780.00   2.25748897   0.05875784
8782.00   2.09061879   0.05380227
8784.00   2.04329371   0.05125658
8786.00   2.12795579   0.04844747
8788.00   2.19716018   0.04553881
8790.00   2.19988090   0.04648991
8792.00   2.18635207   0.04792547
8794.00   2.24277616   0.04615411
8796.00   2.33717275   0.04250064
8798.00   2.39789724   0.04082944
8800.00   2.42807925   0.03947950
8802.00   2.51611269   0.03990630
8804.00   2.62449336   0.04259372
8806.00   2.69375956   0.04507660
8808.00   2.74723852   0.04708792
8810.00   2.77288449   0.04880186
8812.00   2.82550061   0.04846967
8814.00   2.85535824   0.04286639
8816.00   3.00105202   0.04443010
8818.00   3.30415571   0.05264239
8820.00   3.51854289   0.06102028
8822.00   3.42076743   0.06646127
8824.00   3.07656097   0.07056350
8826.00   2.84221220   0.07133975
8828.00   2.55314708   0.06867174
8830.00   2.37838519   0.06661789
8832.00   2.37855959   0.06425018
8834.00   2.37991357   0.06170111
8836.00   2.23047721   0.06028549
8838.00   2.05228013   0.05992376
8840.00   1.98717439   0.06046542
8842.00   1.99446625   0.06337534
8844.00   1.91119176   0.06301166
8846.00   1.74673998   0.05838316
8848.00   1.63469875   0.05372706
8850.00   1.59323591   0.04992834
8852.00   1.68613845   0.04552750
8854.00   1.87350792   0.04362996
8856.00   2.15628278   0.04403751
8858.00   2.22888553   0.04563644
8860.00   2.11630785   0.04996034
8862.00   2.08573014   0.05201038
8864.00   2.07295245   0.05203700
8866.00   2.07201076   0.05147336
8868.00   2.08586413   0.05013989
8870.00   2.08352363   0.04751041
8872.00   2.06478250   0.04707570
8874.00   2.03676021   0.04756423
8876.00   2.02215672   0.04997376
8878.00   2.00544345   0.05521376
8880.00   1.92662066   0.05991115
8882.00   1.79513943   0.06263692
8884.00   1.65728694   0.06454760
8886.00   1.61589813   0.06298991
8888.00   1.62157184   0.05636134
8890.00   1.69961798   0.05303588
8892.00   1.92304188   0.05295587
8894.00   2.10210770   0.05428323
8896.00   2.15396303   0.05648424
8898.00   2.13746214   0.05857803
8900.00   2.06605065   0.05746166
8902.00   1.85709500   0.05314266
8904.00   1.82477379   0.05055481
8906.00   2.01993811   0.04770079
8908.00   2.17784047   0.04846614
8910.00   2.21663821   0.05332086
8912.00   2.17740393   0.05946230
8914.00   2.02969402   0.06345380
8916.00   1.74034607   0.06749964
8918.00   1.63011360   0.06739493
8920.00   1.67703277   0.06232790
8922.00   1.70662695   0.05749802
8924.00   1.72810948   0.05318951
8926.00   1.71071911   0.04868994
8928.00   1.65098929   0.04511057
8930.00   1.57182777   0.04267998
8932.00   1.55923790   0.04221977
8934.00   1.60970378   0.04385094
8936.00   1.63718855   0.04626335
8938.00   1.65026706   0.05041540
8940.00   1.61164391   0.05386459
8942.00   1.55700725   0.05506900
8944.00   1.49537343   0.05471095
8946.00   1.37536985   0.05501581
8948.00   1.17090631   0.05435941
8950.00   1.05011305   0.05636484
8952.00   0.95913881   0.06126530
8954.00   0.94632941   0.06632109
8956.00   1.08669710   0.07017212
8958.00   1.34366900   0.07206944
8960.00   1.48405987   0.07081078
8962.00   1.57608753   0.06606545
8964.00   1.57196480   0.06114165
8966.00   1.42547679   0.05295982
8968.00   1.39528584   0.04859794
8970.00   1.47074556   0.04914989
8972.00   1.56815398   0.05103831
8974.00   1.63921833   0.05107043
8976.00   1.72189033   0.05053062
8978.00   1.73178953   0.05136511
8980.00   1.63015646   0.05304987
8982.00   1.60084087   0.05545871
8984.00   1.67525268   0.05920240
8986.00   1.71634150   0.06181207
8988.00   1.65354967   0.06172088
8990.00   1.52688605   0.05951342
8992.00   1.45020664   0.05848427
8994.00   1.38349158   0.05708178
8996.00   1.33619845   0.05766919
8998.00   1.29087466   0.06049377
9000.00   1.30607224   0.06233039
9002.00   1.36094314   0.06159529
9004.00   1.42836428   0.05919935
9006.00   1.54528576   0.05733438
9008.00   1.76966107   0.05441733
9010.00   1.81492913   0.05298058
9012.00   1.65089530   0.05349315
9014.00   1.53370041   0.05524179
9016.00   1.53159034   0.05715017
9018.00   1.56263506   0.05975940
9020.00   1.53602433   0.06006238
9022.00   1.47459924   0.05844447
9024.00   1.47110391   0.05645070
9026.00   1.53590494   0.05355727
9028.00   1.55994457   0.05114358
9030.00   1.53563285   0.04975198
9032.00   1.48094326   0.04927876
9034.00   1.45741957   0.04906734
9036.00   1.47422433   0.04959257
9038.00   1.48505849   0.05114378
9040.00   1.47435278   0.05428037
9042.00   1.47654241   0.05601254
9044.00   1.53205657   0.05748859
9046.00   1.58539242   0.05808042
9048.00   1.62374198   0.05700129
9050.00   1.66444170   0.05534672
9052.00   1.68078810   0.05520246
9054.00   1.64799184   0.05673809
9056.00   1.69079250   0.05576368
9058.00   1.80820400   0.05235399
9060.00   1.88201386   0.05064984
9062.00   1.87880087   0.05230704
9064.00   1.81325167   0.05484479
9066.00   1.76264161   0.05442490
9068.00   1.68004620   0.05160188
9070.00   1.70124143   0.05139059
9072.00   1.85660058   0.05373079
9074.00   1.90501815   0.05425883
9076.00   1.83477980   0.05233174
9078.00   1.74094790   0.04995254
9080.00   1.66158569   0.04953985
9082.00   1.54522479   0.05024631
9084.00   1.57749367   0.05048663
9086.00   1.80946183   0.05081842
9088.00   1.95633787   0.05127254
9090.00   2.00621438   0.05160631
9092.00   1.95848370   0.05169310
9094.00   1.86917120   0.05153442
9096.00   1.74773556   0.05110394
9098.00   1.72595179   0.05238780
9100.00   1.80708843   0.05645889
9102.00   1.81595951   0.05767517
9104.00   1.73129612   0.05588600
9106.00   1.60350800   0.05327488
9108.00   1.56815892   0.05184061
9110.00   1.56995839   0.05117007
9112.00   1.51142663   0.05143878
9114.00   1.38645619   0.05325872
9116.00   1.34552956   0.05354749
9118.00   1.36637545   0.05240145
9120.00   1.38790762   0.05226753
9122.00   1.40634996   0.05401022
9124.00   1.43180180   0.05670321
9126.00   1.41842461   0.05850456
9128.00   1.35821575   0.06032356
9130.00   1.39162785   0.06107272
9132.00   1.54032201   0.06112821
9134.00   1.60716027   0.06030902
9136.00   1.53895813   0.05835577
9138.00   1.41056001   0.05603146
9140.00   1.40322584   0.05432562
9142.00   1.48445195   0.05224396
9144.00   1.47919542   0.05272844
9146.00   1.36364639   0.05643230
9148.00   1.29544103   0.05939670
9150.00   1.35835576   0.06165934
9152.00   1.50307572   0.06367745
9154.00   1.58405328   0.06336497
9156.00   1.65259343   0.06040402
9158.00   1.68194348   0.05784499
9160.00   1.66768157   0.05435475
9162.00   1.64170498   0.05238376
9164.00   1.61387068   0.05197894
9166.00   1.59656399   0.05262734
9168.00   1.56046849   0.05307506
9170.00   1.52841318   0.05366138
9172.00   1.55396795   0.05367620
9174.00   1.59741002   0.05182596
9176.00   1.68787986   0.05329856
9178.00   1.95842439   0.05783132
9180.00   2.19307172   0.06414047
9182.00   2.15473968   0.07157002
9184.00   1.99023062   0.07890376
9186.00   2.06725246   0.07984308
9188.00   2.32139623   0.07594947
9190.00   2.38498497   0.07116544
9192.00   2.34272313   0.06247618
9194.00   2.26245117   0.05604846
9196.00   2.07335019   0.05337406
9198.00   1.86140907   0.05337314
9200.00   1.81409776   0.05474953
9202.00   1.87008911   0.05837356
9204.00   1.90854716   0.05927402
9206.00   2.02752471   0.05799547
9208.00   2.04688013   0.05754858
9210.00   1.89072925   0.05793883
9212.00   1.71865237   0.05983045
9214.00   1.68724382   0.06174654
9216.00   1.72864991   0.06371504
9218.00   1.79500759   0.06382103
9220.00   2.00037879   0.06215455
9222.00   2.02213228   0.06058288
9224.00   1.85688365   0.05968341
9226.00   1.69281554   0.05885179
9228.00   1.62689775   0.05659120
9230.00   1.61920661   0.05370678
9232.00   1.61260724   0.05291362
9234.00   1.64752066   0.05372210
9236.00   1.63051981   0.05436966
9238.00   1.54553664   0.05653027
9240.00   1.50158262   0.05751407
9242.00   1.52809095   0.05563862
9244.00   1.55011857   0.05301826
9246.00   1.58251899   0.05219499
9248.00   1.66547579   0.05206463
9250.00   1.66237390   0.05177350
9252.00   1.53142345   0.05248503
9254.00   1.43358189   0.05309131
9256.00   1.39803290   0.05273734
9258.00   1.35568178   0.05197071
9260.00   1.34586912   0.05183285
9262.00   1.39610189   0.05192447
9264.00   1.39900023   0.05297819
9266.00   1.33267087   0.05503542
9268.00   1.29141283   0.05698636
9270.00   1.28064424   0.05947591
9272.00   1.28339487   0.06121705
9274.00   1.34916878   0.06108005
9276.00   1.44876438   0.05996588
9278.00   1.51449859   0.06040906
9280.00   1.54868162   0.06187374
9282.00   1.66310030   0.06278991
9284.00   1.82270896   0.06472591
9286.00   1.86706054   0.06525788
9288.00   1.77468640   0.06274414
9290.00   1.59149390   0.05960018
9292.00   1.48155898   0.06105076
9294.00   1.34370857   0.06336848
9296.00   1.35443756   0.07136034
9298.00   1.57162660   0.08661441
9300.00   1.72895640   0.09748828
9302.00   1.69897264   0.10307338
9304.00   1.51939428   0.10772724
9306.00   1.28709167   0.11748219
9308.00   0.91594279   0.13026727
9310.00   0.73730054   0.14132449
9312.00   0.63143927   0.15421582
9314.00   0.63281381   0.16323869
9316.00   0.96722999   0.16408395
9318.00   1.53660327   0.15557935
9320.00   1.71902895   0.14817443
9322.00   1.61874658   0.13839606
9324.00   1.68330216   0.13509379
9326.00   1.91211450   0.13785660
9328.00   2.11349750   0.13998298
9330.00   2.20703840   0.13969663
9332.00   2.12433654   0.13727617
9334.00   2.04478240   0.13989550
9336.00   2.11158299   0.14901698
9338.00   2.13227415   0.14641875
9340.00   2.04390740   0.12983955
9342.00   1.91911393   0.11532718
9344.00   2.04002529   0.10579600
9346.00   2.23463559   0.10018025
9348.00   2.19608843   0.09661280
9350.00   1.96946442   0.09595949
9352.00   1.78994036   0.09643623
9354.00   1.49937546   0.10045583
9356.00   1.44228441   0.10236472
9358.00   1.71255910   0.09886148
9360.00   1.90377057   0.09766224
9362.00   1.82293010   0.10052868
9364.00   1.71050143   0.10950955
9366.00   1.52692652   0.14368891
9368.00   1.09996779   0.19113197
9370.00   1.12207159   0.22003528
9372.00   1.84408659   0.24147418
9374.00   2.19822216   0.26052656
9376.00   1.95910227   0.28260281
9378.00   1.72701517   0.28500875
9380.00   1.84731281   0.24929712
9382.00   2.13026273   0.15844068
9384.00   2.22108215   0.09858385
9386.00   2.27281189   0.09170149
9388.00   2.24563658   0.07895742
9390.00   2.07185769   0.07434052
9392.00   1.91283435   0.07573968
9394.00   1.88974363   0.07626637
9396.00   1.91107321   0.07906580
9398.00   1.84851402   0.08188058
9400.00   1.74473685   0.08712137
9402.00   1.67383039   0.09043933
9404.00   1.46984127   0.08918111
9406.00   1.25456768   0.08512295
9408.00   1.25930226   0.08348259
9410.00   1.32866734   0.08269483
9412.00   1.39763123   0.08540467
9414.00   1.56672806   0.09229714
9416.00   1.65166575   0.09648911
9418.00   1.51599431   0.09797591
9420.00   1.46833503   0.10039009
9422.00   1.57836312   0.10384558
9424.00   1.67908663   0.10512225
9426.00   1.86884773   0.10442127
9428.00   2.16549236   0.09756056
9430.00   2.28050703   0.10427558
9432.00   2.27333128   0.12305253
9434.00   2.36252850   0.14242019
9436.00   2.23217505   0.16089669
9438.00   1.85704494   0.17416985
9440.00   1.74391836   0.16965367
9442.00   1.79041237   0.14696109
9444.00   1.76452202   0.12962677
9446.00   1.71709663   0.10809809
9448.00   1.65515900   0.09682096
9450.00   1.47266328   0.09887448
9452.00   1.18534094   0.10791538
9454.00   1.05442432   0.11924910
9456.00   1.01569289   0.13629727
9458.00   1.08612171   0.13898698
9460.00   1.28876474   0.12920889
9462.00   1.55099970   0.12002012
9464.00   1.89654702   0.10951160
9466.00   2.04573184   0.10167024
9468.00   1.93522924   0.10293589
9470.00   1.76075137   0.11152771
9472.00   1.69404197   0.12148991
9474.00   1.68426418   0.13896440
9476.00   1.50844294   0.14592998
9478.00   1.22532767   0.14422045
9480.00   1.00414312   0.13441972
9482.00   0.87245581   0.11768498
9484.00   0.90666774   0.09402696
9486.00   1.13905197   0.08291035
9488.00   1.59857088   0.08210370
9490.00   1.91805965   0.08737706
9492.00   2.29587781   0.10115248
9494.00   2.47558284   0.11356160
9496.00   2.29366255   0.12645378
9498.00   1.98919338   0.13523945
9500.00   1.90451294   0.13243790
9502.00   1.85019296   0.11903892
9504.00   1.80267358   0.10968406
9506.00   1.84465325   0.09934288
9508.00   1.87970352   0.09223264
9510.00   1.75530559   0.08632429
9512.00   1.74386680   0.08637796
9514.00   1.91384161   0.09794071
9516.00   2.13969576   0.11814087
9518.00   2.24977899   0.12646520
9520.00   2.39640200   0.13230861
9522.00   2.31271708   0.12862603
9524.00   1.92091817   0.11180132
9526.00   1.66700190   0.09318723
9528.00   1.68012720   0.08588014
9530.00   1.84565049   0.08660698
9532.00   1.88727635   0.08571539
9534.00   1.91320592   0.08648759
9536.00   1.79447627   0.08907840
9538.00   1.50240219   0.09437573
9540.00   1.37341455   0.09887833
9542.00   1.40097895   0.10172163
9544.00   1.59596750   0.10564683
9546.00   1.74979728   0.11138038
9548.00   1.91595119   0.11879154
9550.00   1.81650400   0.12101280
9552.00   1.43290210   0.11994632
9554.00   1.25118357   0.11790113
9556.00   1.29472274   0.11153571
9558.00   1.52062911   0.10732748
9560.00   1.74016237   0.11607060
9562.00   1.99561787   0.13434966
9564.00   2.00070816   0.13937142
9566.00   1.71573025   0.13674916
9568.00   1.59962529   0.13089119
9570.00   1.64012784   0.11931458
9572.00   1.79507470   0.10455223
9574.00   1.85861725   0.09580905
9576.00   1.84779096   0.09229732
9578.00   1.85186386   0.08775867
9580.00   1.87961042   0.08314047
9582.00   1.84215862   0.08073628
9584.00   1.76096785   0.08143565
9586.00   1.71705830   0.08371851
9588.00   1.64438719   0.08656926
9590.00   1.49845791   0.08974770
9592.00   1.35890004   0.08992388
9594.00   1.18220043   0.08741219
9596.00   1.12679961   0.08582432
9598.00   1.15727782   0.08414043
9600.00   1.15749729   0.08367523
9602.00   1.20037681   0.08481947
9604.00   1.30308491   0.08841608
9606.00   1.38499343   0.09243493
9608.00   1.49267989   0.09797666
9610.00   1.58794194   0.10086922
9612.00   1.70820814   0.10235559
9614.00   1.67779475   0.10095264
9616.00   1.52624053   0.09909648
9618.00   1.40108240   0.10014743
9620.00   1.33621705   0.10175570
9622.00   1.25943500   0.10505451
9624.00   1.28222173   0.10219493
9626.00   1.51956463   0.09134798
9628.00   1.57313085   0.08106402
9630.00   1.35002577   0.07349606
9632.00   1.19517827   0.07090342
9634.00   1.37161535   0.07345359
9636.00   1.79842418   0.08049533
9638.00   1.86187077   0.08151628
9640.00   1.58979803   0.07676195
9642.00   1.47459936   0.07694003
9644.00   1.48899114   0.08129871
9646.00   1.63983685   0.08821689
9648.00   2.01189893   0.09704743
9650.00   2.54384851   0.10702252
9652.00   2.62948120   0.11254247
9654.00   2.33611596   0.11526341
9656.00   2.24552989   0.11877035
9658.00   2.35413766   0.12480440
9660.00   2.41527188   0.12684503
9662.00   2.19930130   0.12199869
9664.00   1.86822033   0.11280201
9666.00   1.77190870   0.10682304
9668.00   1.75813156   0.10170888
9670.00   1.67996591   0.09770545
9672.00   1.62674081   0.09426997
9674.00   1.65722919   0.09200731
9676.00   1.63989961   0.09295478
9678.00   1.56427920   0.09493765
9680.00   1.48833817   0.09350451
9682.00   1.39429164   0.08962501
9684.00   1.39181310   0.08681819
9686.00   1.46023399   0.08134163
9688.00   1.56102651   0.08261865
9690.00   1.70453984   0.09256215
9692.00   1.86779958   0.10097233
9694.00   2.03272045   0.10239434
9696.00   2.26572812   0.10098676
9698.00   2.29497290   0.10113094
9700.00   2.09841537   0.10185338
9702.00   1.92233944   0.10038217
9704.00   1.87199998   0.09684160
9706.00   1.91015106   0.09359444
9708.00   1.80035621   0.09230967
9710.00   1.63509965   0.09255151
9712.00   1.73610181   0.09630208
9714.00   2.14072382   0.10544828
9716.00   2.16062623   0.10969815
9718.00   1.85396564   0.10924297
9720.00   1.51108998   0.10574989
9722.00   1.13994133   0.10194899
9724.00   0.81177485   0.09703407
9726.00   0.80631059   0.09450085
9728.00   1.10056394   0.09379438
9730.00   1.09932750   0.09612244
9732.00   0.82888958   0.10304336
9734.00   0.69089040   0.10553291
9736.00   0.63259992   0.10422173
9738.00   0.65590686   0.10308000
9740.00   0.88401073   0.10272573
9742.00   1.32214385   0.10156588
9744.00   1.47557914   0.09827734
9746.00   1.37531340   0.09093928
9748.00   1.32602507   0.08833117
9750.00   1.37497079   0.08940755
9752.00   1.44361871   0.09084658
9754.00   1.45192116   0.09294083
9756.00   1.50531477   0.09604825
9758.00   1.56746274   0.09468861
9760.00   1.66294879   0.08792518
9762.00   1.64465332   0.08499447
9764.00   1.55916059   0.08497582
9766.00   1.48788071   0.08457170
9768.00   1.48045564   0.08426682
9770.00   1.49524969   0.08454288
9772.00   1.49267429   0.08434720
9774.00   1.47461402   0.08367549
9776.00   1.50679964   0.08397406
9778.00   1.57741898   0.08223961
9780.00   1.68488294   0.08499089
9782.00   1.84372097   0.09674010
9784.00   1.98982006   0.11453448
9786.00   1.91060019   0.12391218
9788.00   1.61981392   0.12936516
9790.00   1.45269543   0.13111472
9792.00   1.33387524   0.12995712
9794.00   1.31536898   0.12842897
9796.00   1.37257242   0.12602356
9798.00   1.34575289   0.12295945
9800.00   1.17920911   0.11657049
9802.00   0.92276108   0.10503669
9804.00   0.73548940   0.10041454
9806.00   0.47002310   0.10325617
9808.00   0.37122722   0.10564612
9810.00   0.58843124   0.10750196
9812.00   0.94793689   0.10735052
9814.00   1.14471182   0.10500646
9816.00   1.27842492   0.10146992
9818.00   1.34504735   0.09995178
9820.00   1.27727479   0.10042165
9822.00   1.35184318   0.09834160
9824.00   1.59438723   0.09352230
9826.00   1.74263996   0.09022895
9828.00   1.71863621   0.09002889
9830.00   1.56216770   0.09067349
9832.00   1.47074056   0.08890471
9834.00   1.36105305   0.08463975
9836.00   1.38829750   0.08402283
9838.00   1.55311960   0.08652584
9840.00   1.68872809   0.08994063
9842.00   1.76101983   0.09230849
9844.00   1.66563809   0.09528851
9846.00   1.51264697   0.10500037
9848.00   1.32008630   0.12160395
9850.00   1.20400840   0.12619764
9852.00   1.05427983   0.12090607
9854.00   0.94067866   0.11358700
9856.00   0.91616154   0.10394981
9858.00   0.95914945   0.09390325
9860.00   1.14734721   0.09274216
9862.00   1.48229200   0.09852589
9864.00   1.65250468   0.10692274
9866.00   1.71372741   0.11992394
9868.00   1.81292886   0.13066328
9870.00   1.84653234   0.14307631
9872.00   1.73982310   0.15179816
9874.00   1.58857477   0.15001511
9876.00   1.29219937   0.14023321
9878.00   1.10708660   0.13272822
9880.00   0.97057894   0.12176736
9882.00   0.95250928   0.11471829
9884.00   0.94916758   0.11319367
9886.00   0.92482808   0.11274165
9888.00   0.97733000   0.11210152
9890.00   1.02963454   0.11226109
9892.00   1.06831598   0.11557853
9894.00   1.13606218   0.12371069
9896.00   1.31018129   0.12631445
9898.00   1.52625722   0.12321283
9900.00   1.63355881   0.11863766
9902.00   1.76504582   0.11178668
9904.00   1.82531446   0.10665878
9906.00   1.76247895   0.11701661
9908.00   1.61970413   0.13802494
9910.00   1.47191596   0.15269240
9912.00   1.23019099   0.17173106
9914.00   1.02657348   0.17648634
9916.00   0.85982843   0.16512776
9918.00   0.77286795   0.14758844
9920.00   0.77042106   0.13432386
9922.00   0.81217629   0.12034879
9924.00   0.89566886   0.11334367
9926.00   1.09057209   0.11507507
9928.00   1.22689956   0.11638888
9930.00   1.32056791   0.11909347
9932.00   1.34974241   0.12230802
9934.00   1.33076674   0.12837996
9936.00   1.24501365   0.13928922
9938.00   1.13836619   0.15325722
9940.00   0.95868196   0.17262003
9942.00   0.92940075   0.18556337
9944.00   0.88706739   0.19683168
9946.00   0.93479341   0.19894556
9948.00   1.29416767   0.19141611
9950.00   1.82578415   0.17976758
9952.00   1.93392438   0.17666769
9954.00   1.71173608   0.17840887
9956.00   1.69738239   0.17965606
9958.00   1.83567941   0.18492885
9960.00   1.92339152   0.18529921
9962.00   2.14737058   0.17721868
9964.00   2.49304163   0.16545628
9966.00   2.29670584   0.15895587
9968.00   1.61930823   0.15428091
9970.00   1.23408911   0.15383844
9972.00   1.02485184   0.16179508
9974.00   0.88600034   0.16338017
9976.00   0.75793879   0.15928279
9978.00   0.77254097   0.15197294
9980.00   0.85426961   0.14221004
9982.00   0.87787157   0.12993273
9984.00   0.86230716   0.12453994
9986.00   0.73222010   0.12541895
9988.00   0.92081042   0.12559155
9990.00   1.36977714   0.12722136
9992.00   1.80044788   0.13011173
9994.00   2.06508219   0.13486390
9996.00   2.14574403   0.14149182
9998.00   2.08335310   0.14781343
10000.00   1.80445188   0.15440232
10002.00   1.72054535   0.15959814
10004.00   1.60175788   0.16162327
10006.00   1.54979855   0.17103593
10008.00   1.76739866   0.19075603
10010.00   2.06463277   0.21416625
10012.00   2.10710716   0.22310494
10014.00   1.99118102   0.22538299
10016.00   2.01299834   0.22446560
10018.00   2.15640843   0.21756472
10020.00   2.08939171   0.20645382
10022.00   1.84808666   0.19541382
10024.00   1.82801855   0.18392486
10026.00   1.94538122   0.17324448
10028.00   2.13309360   0.16342057
10030.00   1.95550275   0.15564132
10032.00   1.44912535   0.14911128
10034.00   1.07529002   0.14447380
10036.00   0.74923125   0.14327384
10038.00   0.61195999   0.14366238
10040.00   0.88285238   0.14456644
10042.00   1.51478231   0.14691052
10044.00   1.67663622   0.14695171
10046.00   1.52487338   0.14460837
10048.00   1.35222089   0.14348034
10050.00   0.99148360   0.14227384
10052.00   0.72696986   0.14245702
10054.00   0.73569106   0.14687353
10056.00   0.86825559   0.15517459
10058.00   1.04382583   0.15816136
10060.00   1.45366734   0.15749840
10062.00   1.52061111   0.15818281
10064.00   1.15779492   0.15996346
10066.00   0.82193616   0.16213279
10068.00   0.71989793   0.16527349
10070.00   0.83728296   0.16877054
10072.00   0.96932054   0.17007385
10074.00   1.24342620   0.16732836
10076.00   1.15394905   0.17444913
10078.00   0.61209559   0.19325847
10080.00   0.26968276   0.20726723
10082.00   0.37752690   0.21451226
10084.00   0.81872140   0.21608819
10086.00   1.06064337   0.20896854
10088.00   1.23582524   0.18961548
10090.00   1.28697509   0.17587420
10092.00   1.21903181   0.16235573
10094.00   1.16551548   0.15728226
10096.00   1.10369888   0.16075206
10098.00   1.15924409   0.16854733
10100.00   1.24908298   0.17517142
10102.00   1.09755555   0.18622317
10104.00   1.02286744   0.18912328
10106.00   1.00155222   0.18318560
10108.00   1.27304381   0.17817495
10110.00   1.35075912   0.17834663
10112.00   1.35543936   0.18151038
10114.00   1.81480831   0.18844892
10116.00   2.55682528   0.20057131
10118.00   2.56063980   0.21473606
10120.00   1.97862330   0.23766416
10122.00   1.69748266   0.24594648
10124.00   1.39509964   0.23864745
10126.00   1.16734926   0.22597268
10128.00   1.28216293   0.21402039
10130.00   1.42759174   0.19927742
10132.00   1.55621934   0.19368577
10134.00   1.88243127   0.19541897
10136.00   1.83314848   0.20160363
10138.00   1.11785004   0.21905636
10140.00   0.69507132   0.22359715
10142.00   0.79753366   0.21083695
10144.00   1.07954425   0.19482157
10146.00   1.36802071   0.19278441
10148.00   1.83234054   0.19836104
10150.00   1.91068524   0.20220452
10152.00   1.50690010   0.20945417
10154.00   1.37333313   0.21285643
10156.00   1.43833238   0.21139472
10158.00   1.41933012   0.21122704
10160.00   1.44583654   0.21282825
10162.00   1.50433987   0.21465261
10164.00   1.34400046   0.22492390
10166.00   0.74871174   0.24317126
10168.00   0.71073267   0.25857922
10170.00   1.21749878   0.27940788
10172.00   1.79943979   0.29134374
10174.00   2.15565687   0.29050378
10176.00   2.38893318   0.29111374
10178.00   2.47637320   0.28673934
10180.00   2.46869063   0.27414068
10182.00   2.31596535   0.26418836
10184.00   1.74927580   0.25824152
10186.00   1.28490841   0.24989565
10188.00   1.39360946   0.24947282
10190.00   1.77960271   0.25821582
10192.00   1.60883975   0.25453830
10194.00   0.97930321   0.23806598
10196.00   0.88952041   0.23380521
10198.00   1.32199031   0.24309529
10200.00   1.69091469   0.25655790
10202.00   2.14403874   0.26639895
10204.00   2.46670556   0.27599809
10206.00   1.95202643   0.29316040
10208.00   0.81212705   0.31533250
10210.00   0.57253397   0.31755017
10212.00   0.97363511   0.29897810
10214.00   1.21251360   0.28948914
10216.00   1.77549005   0.28148922
10218.00   2.32350224   0.27738044
10220.00   2.62362564   0.27793707
10222.00   3.08529127   0.27725090
10224.00   3.14590263   0.27627136
10226.00   2.79364067   0.27800662
10228.00   2.34332317   0.27775387
10230.00   1.63845846   0.27406012
10232.00   1.03607684   0.26801529
10234.00   1.12748170   0.25677363
10236.00   1.50963205   0.24066093
10238.00   1.21758798   0.23615812
10240.00   0.25747583   0.24278831
10242.00   0.14223644   0.24279260
10244.00   0.99155074   0.23442795
10246.00   1.51169991   0.22926657
10248.00   1.08760631   0.23588567
10250.00   0.45273081   0.24908343
10252.00   0.64100578   0.25301486
10254.00   1.35066128   0.25199581
10256.00   1.32309189   0.25391634
10258.00   0.65018351   0.25821369
10260.00   0.50714131   0.26078565
10262.00   0.69251734   0.26234068
10264.00   0.69984344   0.26275736
10266.00   0.58661152   0.26393434
10268.00   0.56300944   0.26776334
10270.00   0.53922200   0.27464766
10272.00   0.21599743   0.27943964
10274.00   0.30430265   0.28901099
10276.00   1.20511846   0.30852990
10278.00   1.55727699   0.33707195
10280.00   1.14571830   0.38132570
10282.00   0.74197412   0.44810162
10284.00   0.83389947   0.47601174
10286.00   1.17246254   0.48346109
10288.00   1.51575835   0.47561055
10290.00   2.26135164   0.45551373
10292.00   2.65756953   0.43146554
10294.00   2.45815909   0.40953533
10296.00   1.79811770   0.38287541
10298.00   1.73207074   0.36095220
10300.00   2.17357910   0.33985996
10302.00   2.15984935   0.33224163
10304.00   1.41370648   0.34119972
10306.00   0.93817009   0.34536085
10308.00   1.19714803   0.33912897
10310.00   1.93472701   0.32947883
10312.00   2.06652284   0.32346950
10314.00   1.70365614   0.31773178
10316.00   1.26540959   0.30790498
10318.00   0.68190932   0.29000033
10320.00   0.61370173   0.28386598
10322.00   0.89107016   0.29046714
10324.00   1.18642944   0.30220398
10326.00   1.01435792   0.30713610
10328.00   0.54745370   0.30764881
10330.00   0.29327995   0.31593246
10332.00   -0.02982670   0.33672611
10334.00   -0.05992424   0.34286093
10336.00   0.42950803   0.33783874
10338.00   1.21432240   0.33908818
10340.00   1.53894678   0.34377978
10342.00   1.33154011   0.35575417
10344.00   1.42494556   0.35797647
10346.00   1.82883057   0.35104887
10348.00   1.88418353   0.34190267
10350.00   1.50776201   0.33923820
10352.00   1.31330168   0.33751853
10354.00   1.24735779   0.33974425
10356.00   1.32775289   0.35426985
10358.00   0.99443214   0.34959912
10360.00   -0.01625602   0.32054941
10362.00   -0.32193194   0.32128198
10364.00   0.41737271   0.35964467
10366.00   1.45874491   0.38616597
10368.00   1.97637993   0.39955106
10370.00   2.42184508   0.41407080
10372.00   2.85004199   0.41711744
10374.00   3.06827664   0.41154241
10376.00   2.55432916   0.39179442
10378.00   1.25335026   0.34322002
10380.00   0.68773644   0.30543291
10382.00   0.32734832   0.29531354
10384.00   -0.14694320   0.30196150
10386.00   0.13421515   0.29752442
10388.00   1.47963446   0.28744242
10390.00   1.83782628   0.28282060
10392.00   1.20430756   0.28542403
10394.00   0.64137682   0.28663244
10396.00   0.58503610   0.28596293
10398.00   0.54489143   0.28420756
10400.00   0.13273257   0.28079892
10402.00   -0.46168189   0.28232625
10404.00   -0.12106316   0.29314692
10406.00   1.31345576   0.31693044
10408.00   1.97041959   0.32187766
10410.00   2.05840087   0.31225970
10412.00   2.11438465   0.31433302
10414.00   1.94013852   0.33842300
10416.00   1.15063974   0.37051100
10418.00   0.56432684   0.36528765
10420.00   -0.17146239   0.32786537
10422.00   -0.12508561   0.29844734
10424.00   0.70537037   0.26730393
10426.00   1.28089359   0.24752224
10428.00   1.53173977   0.24178864
10430.00   1.66460586   0.24154751
10432.00   1.44819278   0.23806283
10434.00   0.84156442   0.23564747
10436.00   0.66879708   0.23476083
10438.00   0.89152461   0.23660561
10440.00   0.89345910   0.23640594
10442.00   0.88582553   0.23176706
10444.00   0.81965252   0.22974773
10446.00   0.37948918   0.23442143
10448.00   -0.28262772   0.24166167
10450.00   -0.23044090   0.24296539
10452.00   0.68401697   0.24158902
10454.00   0.90809745   0.23933612
10456.00   0.64632174   0.23082029
10458.00   0.30838826   0.22586706
10460.00   0.35074338   0.23015384
10462.00   0.70532519   0.24105099
10464.00   0.74805725   0.24531564
10466.00   0.60251900   0.24623753
10468.00   0.58215104   0.24674654
10470.00   0.42129967   0.24938076
10472.00   0.13170877   0.24801019
10474.00   0.24474687   0.24197189
10476.00   0.55249173   0.23571078
10478.00   0.55241214   0.22869077
10480.00   0.40138409   0.21798623
10482.00   0.32681250   0.21250056
10484.00   0.13379794   0.21170414
10486.00   0.04489158   0.21505295
10488.00   0.25556807   0.22736275
10490.00   0.46680428   0.23880904
10492.00   0.33731270   0.23615265
10494.00   -0.08907866   0.22481284
10496.00   -0.19448136   0.22207032
10498.00   -0.08147752   0.22373972
10500.00   0.21365714   0.22077683
10502.00   0.56059330   0.21732598
10504.00   0.64600402   0.21664388
10506.00   0.43069851   0.21789624
10508.00   -0.05348153   0.22120233
10510.00   -0.17982559   0.22839751
10512.00   0.02356189   0.24485218
10514.00   0.08648780   0.24866059
10516.00   -0.08845353   0.24094654
10518.00   -0.33354615   0.23728042
10520.00   -0.35302874   0.24101409
10522.00   -0.22702021   0.24620760
10524.00   -0.15623293   0.24560521
10526.00   -0.09297148   0.24027337
10528.00   0.01549091   0.23631769
10530.00   0.13259938   0.23184518
10532.00   0.31220427   0.23272354
10534.00   0.55541199   0.23930210
10536.00   0.78421682   0.24460825
10538.00   0.97155777   0.24307932
10540.00   1.24756953   0.23633947
10542.00   1.20662302   0.23423820
10544.00   0.69818309   0.23279506
10546.00   0.21099586   0.23189870
10548.00   0.01718839   0.23320900
10550.00   -0.02884335   0.23400387
10552.00   -0.08762108   0.23315393
10554.00   -0.04828987   0.23221901
10556.00   0.22956096   0.23256455
10558.00   0.93524271   0.23319802
10560.00   1.14052060   0.23261964
10562.00   0.83672301   0.23212246
10564.00   0.39521261   0.23229758
10566.00   0.40698292   0.23435062
10568.00   0.74055150   0.23878026
10570.00   0.73144540   0.24119242
10572.00   0.34196948   0.24261963
10574.00   0.25230612   0.24237676
10576.00   0.40145654   0.24169578
10578.00   0.51874159   0.24142273
10580.00   0.59938090   0.24095613
10582.00   0.67737526   0.24045819
10584.00   0.51878339   0.23950778
10586.00   -0.05575718   0.23740633
10588.00   -0.14429446   0.23687628
10590.00   0.46769975   0.23789343
10592.00   0.93752047   0.24024336
10594.00   0.68542841   0.24352011
10596.00   0.14358783   0.24660744
10598.00   0.04344942   0.24824489
10600.00   0.13243861   0.24938083
10602.00   0.21962956   0.24732809
10604.00   0.50025611   0.24016901
10606.00   0.63774811   0.23658286
10608.00   0.57072920   0.23692372
10610.00   0.44493897   0.23859512
10612.00   0.32025851   0.23869947
10614.00   0.18627324   0.23814513
10616.00   0.16909738   0.23962714
10618.00   0.18111736   0.24401824
10620.00   0.23220158   0.24606817
10622.00   0.63125061   0.24627637
10624.00   1.04408899   0.24588992
10626.00   0.89314526   0.24430560
10628.00   0.38053918   0.24092936
10630.00   0.22988752   0.24043343
10632.00   0.30733220   0.24302293
10634.00   0.30528992   0.24425637
10636.00   0.33455824   0.24428953
10638.00   0.39987104   0.24411212
10640.00   0.50756039   0.24377373
10642.00   0.64591385   0.24281832
10644.00   0.73731139   0.24282217
10646.00   0.86175761   0.24396165
10648.00   0.95814234   0.24454843
10650.00   0.82777177   0.24369233
10652.00   0.61457920   0.24261820
10654.00   0.72445902   0.24326703
10656.00   0.90116233   0.24371853
10658.00   0.73435304   0.24227975
10660.00   0.29189185   0.23921704
10662.00   0.29644778   0.23902592
10664.00   0.65623520   0.24090212
10666.00   0.87112400   0.24217956
10668.00   1.03567049   0.24261548
10670.00   1.01783410   0.24194703
10672.00   0.74072622   0.24263274
10674.00   0.22210539   0.24434954
10676.00   0.27561290   0.24555438
10678.00   0.99183039   0.24757333
10680.00   1.23367652   0.24687124
10682.00   1.04268849   0.24248478
10684.00   0.74220170   0.23880595
10686.00   0.52569340   0.23779893
10688.00   0.37076944   0.23879179
10690.00   0.21007624   0.23910729
10692.00   -0.15131534   0.23970912
10694.00   -0.16093136   0.23894682
10696.00   0.49141851   0.23973502
10698.00   1.11396056   0.23985005
10700.00   1.16583815   0.23602280
10702.00   0.93359509   0.23052379
10704.00   0.74070534   0.23000600
10706.00   0.37428714   0.23405093
10708.00   0.16665128   0.23449632
10710.00   0.16177189   0.23366466
10712.00   0.22252433   0.23128598
10714.00   0.19634119   0.22439665
10716.00   0.05373472   0.21373621
10718.00   -0.12372011   0.21353043
10720.00   -0.42552102   0.22299279
10722.00   -0.35810673   0.22618585
10724.00   0.09594189   0.22444452
10726.00   0.44499061   0.22079856
10728.00   0.79581987   0.21505400
10730.00   1.09207468   0.20945734
10732.00   0.88045341   0.21061120
10734.00   0.15643051   0.21747941
10736.00   -0.00893578   0.21821630
10738.00   0.32656793   0.20914917
10740.00   0.55872059   0.21082081
10742.00   0.70080802   0.22877326
10744.00   0.89677448   0.24432598
10746.00   0.81564403   0.24711535
10748.00   0.44310522   0.24175179
10750.00   0.30390109   0.23173512
10752.00   0.35847939   0.20490049
10754.00   0.28472604   0.19776192
10756.00   0.18429427   0.20381781
10758.00   0.15930668   0.20914135
10760.00   0.03338227   0.21703154
10762.00   -0.20206074   0.22561838
10764.00   -0.12422113   0.22325893
10766.00   0.25147624   0.21089587
10768.00   0.56839944   0.20299396
10770.00   0.84247860   0.19439512
10772.00   0.85228100   0.18656541
10774.00   0.92446049   0.18008364
10776.00   1.22976130   0.17797723
10778.00   1.40801138   0.18278224
10780.00   1.54574114   0.19409121
10782.00   1.58906978   0.19726485
10784.00   1.56384665   0.19582575
10786.00   1.47804901   0.19740317
10788.00   1.26844354   0.19915108
10790.00   1.05237489   0.19966357
10792.00   0.90694192   0.19804163
10794.00   0.67357370   0.19244777
10796.00   0.47454865   0.19532643
10798.00   0.07295123   0.21142077
10800.00   0.24856290   0.21665422
10802.00   1.38531554   0.20763794
10804.00   3.03136373   0.19678476
10806.00   3.63691032   0.19206073
10808.00   3.39950788   0.20097650
10810.00   2.91068256   0.22290337
10812.00   1.75777239   0.27252708
10814.00   1.08944130   0.27084023
10816.00   0.51044841   0.23176836
10818.00   0.32401887   0.19939960
10820.00   0.85703586   0.19019220
10822.00   1.83744898   0.19222182
10824.00   2.00047970   0.18405885
10826.00   1.73709655   0.13129651
10828.00   1.10306928   0.22177518
10830.00   -0.49358033   0.40100060
10832.00   -0.96555850   0.44874441
10834.00   0.21378150   0.37935969
10836.00   1.79229406   0.25357312
10838.00   1.92144325   0.18753743
10840.00   1.11037007   0.16293585
10842.00   0.77507284   0.13878539
10844.00   0.48422106   0.15813841
10846.00   0.48585230   0.16807654
10848.00   0.88788036   0.17660416
10850.00   1.31681943   0.18012268
10852.00   1.10517153   0.17530788
10854.00   0.33083189   0.16483916
10856.00   0.18232706   0.15621864
10858.00   0.54654655   0.14206233
10860.00   1.01023537   0.13359013
10862.00   1.37175730   0.13602053
10864.00   1.49515510   0.13922299
10866.00   1.55397779   0.13303065
10868.00   1.55397779   0.13303065
