# File created by shivutils (I.Shivvers)
# 
# wl(A)   flm    er(optional)
3458.00   0.13717859   0.02568926
3460.00   0.12636322   0.02395907
3462.00   0.23798810   0.02569400
3464.00   0.16496736   0.02481762
3466.00   0.22233775   0.02530952
3468.00   0.19923966   0.02484322
3470.00   0.16507601   0.02464721
3472.00   0.21984073   0.02547122
3474.00   0.13089682   0.02435569
3476.00   0.19370685   0.02531392
3478.00   0.24667253   0.02729384
3480.00   0.18134086   0.02746677
3482.00   0.28875645   0.02896207
3484.00   0.27408517   0.02857203
3486.00   0.23299684   0.02788949
3488.00   0.21051919   0.02731155
3490.00   0.29009272   0.02821376
3492.00   0.27911720   0.02761714
3494.00   0.21548365   0.02722031
3496.00   0.26015660   0.02734109
3498.00   0.24243910   0.02641184
3500.00   0.29577728   0.02788787
3502.00   0.32058181   0.02786783
3504.00   0.30749117   0.02751386
3506.00   0.30347674   0.02718102
3508.00   0.26070402   0.02690650
3510.00   0.31284272   0.02779358
3512.00   0.31199231   0.02751234
3514.00   0.31079179   0.02728169
3516.00   0.27586040   0.02688831
3518.00   0.23436732   0.02620425
3520.00   0.26351953   0.02687734
3522.00   0.29006302   0.02648014
3524.00   0.23873895   0.02563962
3526.00   0.23902046   0.02549327
3528.00   0.15651148   0.02425995
3530.00   0.14541714   0.02454240
3532.00   0.16369784   0.02427817
3534.00   0.15534009   0.02433914
3536.00   0.19232199   0.02427549
3538.00   0.18498593   0.02443260
3540.00   0.14152903   0.02478193
3542.00   0.20339571   0.02652422
3544.00   0.12106968   0.02598362
3546.00   0.15958861   0.02580196
3548.00   0.17981712   0.02535049
3550.00   0.19661126   0.02547980
3552.00   0.20987166   0.02607889
3554.00   0.17435987   0.02572389
3556.00   0.13325097   0.02482748
3558.00   0.15663427   0.02515913
3560.00   0.13658768   0.02465941
3562.00   0.16210045   0.02398901
3564.00   0.17039029   0.02385395
3566.00   0.21684667   0.02433404
3568.00   0.20750339   0.02356734
3570.00   0.17297585   0.02333717
3572.00   0.23676940   0.02396181
3574.00   0.19837104   0.02319831
3576.00   0.17253617   0.02285720
3578.00   0.15769072   0.02249387
3580.00   0.20923170   0.02239782
3582.00   0.19429096   0.02215934
3584.00   0.17489992   0.02186272
3586.00   0.21994726   0.02246457
3588.00   0.16359651   0.02151824
3590.00   0.15967297   0.02120098
3592.00   0.17081164   0.02140880
3594.00   0.18012616   0.02160735
3596.00   0.26723879   0.02206452
3598.00   0.20265215   0.02113733
3600.00   0.23735183   0.02159500
3602.00   0.23505410   0.02133297
3604.00   0.20925480   0.02058607
3606.00   0.20459932   0.02085625
3608.00   0.17947507   0.02058540
3610.00   0.16987276   0.02015325
3612.00   0.21518249   0.02076810
3614.00   0.25663609   0.02156746
3616.00   0.26363448   0.02166048
3618.00   0.19787807   0.02121885
3620.00   0.25693874   0.02125323
3622.00   0.24149256   0.02104037
3624.00   0.29750827   0.02128658
3626.00   0.25359010   0.02091183
3628.00   0.28037946   0.02122012
3630.00   0.28359117   0.02104767
3632.00   0.22535686   0.02051552
3634.00   0.23939451   0.02074213
3636.00   0.21844419   0.02019802
3638.00   0.21832414   0.02004024
3640.00   0.21179568   0.01987141
3642.00   0.19593610   0.01965957
3644.00   0.19119052   0.01919552
3646.00   0.24068255   0.01965463
3648.00   0.17291916   0.01959535
3650.00   0.19327014   0.02083264
3652.00   0.17605517   0.02031362
3654.00   0.23685427   0.02009543
3656.00   0.24078423   0.01988940
3658.00   0.20306855   0.01871093
3660.00   0.18835879   0.01865741
3662.00   0.23197982   0.01930799
3664.00   0.23542978   0.01914511
3666.00   0.24381525   0.01853644
3668.00   0.23761598   0.01808773
3670.00   0.23700009   0.01800967
3672.00   0.20285752   0.01747878
3674.00   0.20703921   0.01734947
3676.00   0.17644928   0.01656273
3678.00   0.17795634   0.01670283
3680.00   0.18769952   0.01637742
3682.00   0.19164830   0.01649616
3684.00   0.13990628   0.01564143
3686.00   0.14052729   0.01567760
3688.00   0.20496259   0.01632719
3690.00   0.16147736   0.01582926
3692.00   0.15913337   0.01564999
3694.00   0.11811507   0.01513564
3696.00   0.14769537   0.01522013
3698.00   0.16454208   0.01596923
3700.00   0.13486983   0.01573349
3702.00   0.14748989   0.01555836
3704.00   0.15083982   0.01574471
3706.00   0.16209937   0.01549759
3708.00   0.15359412   0.01548081
3710.00   0.16746169   0.01545477
3712.00   0.12834539   0.01479098
3714.00   0.13494980   0.01506397
3716.00   0.16987316   0.01542560
3718.00   0.13652836   0.01485725
3720.00   0.19515647   0.01515029
3722.00   0.16196675   0.01467655
3724.00   0.20998663   0.01555050
3726.00   0.24993483   0.01588213
3728.00   0.25963788   0.01629422
3730.00   0.24622013   0.01634855
3732.00   0.22349270   0.01622822
3734.00   0.27359605   0.01694102
3736.00   0.30291791   0.01725200
3738.00   0.31938944   0.01765137
3740.00   0.40647023   0.01977269
3742.00   0.49558002   0.02345218
3744.00   0.56661373   0.02648751
3746.00   0.58805809   0.02547655
3748.00   0.40982514   0.02003010
3750.00   0.39651821   0.01789961
3752.00   0.43356357   0.01811840
3754.00   0.47334715   0.01858671
3756.00   0.49240148   0.01868089
3758.00   0.48675152   0.01855421
3760.00   0.52491863   0.01875346
3762.00   0.48811032   0.01823551
3764.00   0.48103419   0.01792634
3766.00   0.46103718   0.01765784
3768.00   0.44056344   0.01743090
3770.00   0.44961300   0.01762810
3772.00   0.40285931   0.01731952
3774.00   0.42838222   0.01751394
3776.00   0.38943003   0.01691057
3778.00   0.41054324   0.01725076
3780.00   0.39624815   0.01681488
3782.00   0.39778373   0.01686442
3784.00   0.36938326   0.01614933
3786.00   0.33187149   0.01567477
3788.00   0.34018412   0.01550591
3790.00   0.33421198   0.01558316
3792.00   0.34652889   0.01599048
3794.00   0.30218884   0.01549802
3796.00   0.32066616   0.01563707
3798.00   0.33453853   0.01573280
3800.00   0.31972524   0.01553219
3802.00   0.30445012   0.01558307
3804.00   0.33346186   0.01556967
3806.00   0.30476033   0.01513460
3808.00   0.32294618   0.01531803
3810.00   0.35325221   0.01544295
3812.00   0.34468701   0.01534491
3814.00   0.37935961   0.01587474
3816.00   0.38167942   0.01571677
3818.00   0.37363924   0.01571028
3820.00   0.39352641   0.01594323
3822.00   0.39776207   0.01607128
3824.00   0.40730700   0.01616972
3826.00   0.43592400   0.01638720
3828.00   0.43771533   0.01661404
3830.00   0.38910251   0.01640656
3832.00   0.40195598   0.01605249
3834.00   0.38649325   0.01597321
3836.00   0.37228757   0.01576179
3838.00   0.36150981   0.01544811
3840.00   0.30813170   0.01477815
3842.00   0.32801843   0.01469417
3844.00   0.27593720   0.01419875
3846.00   0.28489097   0.01410550
3848.00   0.29288661   0.01393904
3850.00   0.29948472   0.01377723
3852.00   0.24280603   0.01305352
3854.00   0.19492470   0.01249329
3856.00   0.20034482   0.01247389
3858.00   0.18476995   0.01217416
3860.00   0.16583760   0.01219438
3862.00   0.17351972   0.01243104
3864.00   0.16328535   0.01201338
3866.00   0.15531022   0.01190020
3868.00   0.15248154   0.01193843
3870.00   0.11056434   0.01118459
3872.00   0.14035339   0.01137959
3874.00   0.10895179   0.01105322
3876.00   0.09430937   0.01103197
3878.00   0.12877661   0.01114493
3880.00   0.12946008   0.01132495
3882.00   0.09945399   0.01093669
3884.00   0.10167039   0.01110564
3886.00   0.13802556   0.01161969
3888.00   0.13732504   0.01136951
3890.00   0.13555932   0.01118455
3892.00   0.14868675   0.01138156
3894.00   0.15125828   0.01135757
3896.00   0.14548054   0.01124915
3898.00   0.12916257   0.01133840
3900.00   0.14862915   0.01121493
3902.00   0.17153631   0.01155626
3904.00   0.18273601   0.01200793
3906.00   0.22244280   0.01268414
3908.00   0.17071564   0.01238300
3910.00   0.18330870   0.01241495
3912.00   0.19049805   0.01254318
3914.00   0.21060890   0.01260813
3916.00   0.23241636   0.01269197
3918.00   0.23095078   0.01244526
3920.00   0.23417652   0.01257888
3922.00   0.26286402   0.01278896
3924.00   0.25526338   0.01266618
3926.00   0.24956458   0.01278993
3928.00   0.29856211   0.01322411
3930.00   0.32035484   0.01337281
3932.00   0.33679006   0.01352827
3934.00   0.35382969   0.01376935
3936.00   0.38275533   0.01394869
3938.00   0.38494113   0.01413621
3940.00   0.45841773   0.01492663
3942.00   0.47455208   0.01515342
3944.00   0.51871410   0.01559680
3946.00   0.55879169   0.01575024
3948.00   0.61898510   0.01629978
3950.00   0.63790025   0.01610114
3952.00   0.71143061   0.01678694
3954.00   0.80668681   0.01758908
3956.00   0.88159803   0.01829067
3958.00   0.94337654   0.01869627
3960.00   0.94858443   0.01888631
3962.00   1.01077669   0.01931547
3964.00   1.02783941   0.01941518
3966.00   1.07545869   0.01952527
3968.00   1.09266043   0.01953400
3970.00   1.15084390   0.02000479
3972.00   1.20329445   0.02037719
3974.00   1.19888276   0.02034468
3976.00   1.18147143   0.02024161
3978.00   1.17397659   0.02020609
3980.00   1.20982263   0.02030300
3982.00   1.17620890   0.01989728
3984.00   1.17079305   0.01972301
3986.00   1.15598077   0.01961641
3988.00   1.22894181   0.02008077
3990.00   1.15492291   0.01964916
3992.00   1.16472187   0.01967088
3994.00   1.18970803   0.01986554
3996.00   1.17809378   0.01980441
3998.00   1.18489278   0.01980964
4000.00   1.12944483   0.01947570
4002.00   1.13265070   0.01957738
4004.00   1.12773437   0.01948056
4006.00   1.12559888   0.01951546
4008.00   1.12494694   0.01952837
4010.00   1.16705161   0.01980800
4012.00   1.15459203   0.01965094
4014.00   1.17407566   0.01976345
4016.00   1.16221601   0.01950835
4018.00   1.12746220   0.01943821
4020.00   1.12259268   0.01957171
4022.00   1.09417490   0.01926691
4024.00   1.05559043   0.01902671
4026.00   1.06853416   0.01889951
4028.00   0.99759182   0.01838407
4030.00   1.00280883   0.01839179
4032.00   0.95931111   0.01797130
4034.00   0.91154592   0.01771984
4036.00   0.89637779   0.01751980
4038.00   0.84297646   0.01706937
4040.00   0.81452280   0.01689979
4042.00   0.78723498   0.01668316
4044.00   0.74382579   0.01709001
4046.00   0.68636986   0.01767973
4048.00   0.64720550   0.01688090
4050.00   0.62553915   0.01563238
4052.00   0.63415736   0.01536559
4054.00   0.65548693   0.01553709
4056.00   0.67232776   0.01555967
4058.00   0.69382070   0.01571388
4060.00   0.66540861   0.01546343
4062.00   0.71017499   0.01581391
4064.00   0.73596719   0.01608162
4066.00   0.78565805   0.01631232
4068.00   0.76984980   0.01620826
4070.00   0.76655218   0.01617693
4072.00   0.79366600   0.01618434
4074.00   0.80513575   0.01632678
4076.00   0.85623040   0.01676692
4078.00   0.88466565   0.01712901
4080.00   0.94369022   0.01740413
4082.00   1.02506661   0.01778210
4084.00   1.12532952   0.01836828
4086.00   1.18011158   0.01880096
4088.00   1.25441510   0.01916505
4090.00   1.31720528   0.01945341
4092.00   1.36810200   0.01958864
4094.00   1.42580146   0.01988193
4096.00   1.43964906   0.01981002
4098.00   1.44506816   0.01988705
4100.00   1.46973065   0.02000361
4102.00   1.46327127   0.01986836
4104.00   1.48690930   0.01996598
4106.00   1.53595418   0.02025277
4108.00   1.55274944   0.02030189
4110.00   1.53783875   0.02025601
4112.00   1.52908368   0.02004876
4114.00   1.56207501   0.02013609
4116.00   1.58968441   0.02026392
4118.00   1.61421535   0.02036132
4120.00   1.55492772   0.02019790
4122.00   1.47785241   0.01967063
4124.00   1.45330746   0.01941524
4126.00   1.39721031   0.01918629
4128.00   1.39246413   0.01900087
4130.00   1.34820427   0.01878466
4132.00   1.32116799   0.01870604
4134.00   1.26488706   0.01835043
4136.00   1.18605873   0.01789304
4138.00   1.11754596   0.01737305
4140.00   1.07474360   0.01718027
4142.00   1.02015780   0.01667323
4144.00   1.01108621   0.01653711
4146.00   0.98589386   0.01640209
4148.00   0.99363012   0.01641205
4150.00   0.97302881   0.01627181
4152.00   0.96805707   0.01627715
4154.00   0.96924562   0.01627103
4156.00   1.02160629   0.01663295
4158.00   1.04719103   0.01671910
4160.00   1.09216005   0.01691280
4162.00   1.13674445   0.01724705
4164.00   1.16207210   0.01748131
4166.00   1.18970997   0.01766674
4168.00   1.18244146   0.01753140
4170.00   1.14774632   0.01730530
4172.00   1.12082985   0.01704927
4174.00   1.07681244   0.01673352
4176.00   1.08875254   0.01669019
4178.00   1.03940924   0.01640167
4180.00   0.98114886   0.01596973
4182.00   0.90694163   0.01551180
4184.00   0.90165212   0.01536288
4186.00   0.82032382   0.01474392
4188.00   0.82569136   0.01481220
4190.00   0.79888228   0.01457025
4192.00   0.79745203   0.01451964
4194.00   0.77169297   0.01426179
4196.00   0.77608858   0.01434630
4198.00   0.76223488   0.01414054
4200.00   0.70445642   0.01379430
4202.00   0.72752233   0.01385883
4204.00   0.74812270   0.01398097
4206.00   0.73474469   0.01398797
4208.00   0.71022856   0.01377365
4210.00   0.72211745   0.01387555
4212.00   0.76430927   0.01407200
4214.00   0.73813347   0.01382611
4216.00   0.76322678   0.01401881
4218.00   0.80653476   0.01426205
4220.00   0.86436949   0.01459964
4222.00   0.86038736   0.01463656
4224.00   0.95300701   0.01517463
4226.00   1.01547723   0.01556720
4228.00   1.06614290   0.01574814
4230.00   1.10733567   0.01610511
4232.00   1.16892166   0.01638583
4234.00   1.20376091   0.01655544
4236.00   1.20196067   0.01654252
4238.00   1.23455191   0.01674230
4240.00   1.21977673   0.01656543
4242.00   1.18683387   0.01633612
4244.00   1.18920152   0.01638521
4246.00   1.16110443   0.01630357
4248.00   1.05849257   0.01575849
4250.00   0.99217040   0.01527946
4252.00   0.93108787   0.01478589
4254.00   0.82229976   0.01412445
4256.00   0.77380301   0.01374753
4258.00   0.76349812   0.01366119
4260.00   0.68844397   0.01316646
4262.00   0.64951187   0.01285326
4264.00   0.59463081   0.01247252
4266.00   0.54105686   0.01202800
4268.00   0.52356703   0.01192198
4270.00   0.49478700   0.01165238
4272.00   0.46647029   0.01135059
4274.00   0.46683366   0.01133177
4276.00   0.43980882   0.01116825
4278.00   0.42710103   0.01099122
4280.00   0.39379758   0.01074954
4282.00   0.40273106   0.01091045
4284.00   0.42502324   0.01103309
4286.00   0.38340614   0.01063671
4288.00   0.40667477   0.01071135
4290.00   0.40797543   0.01069438
4292.00   0.42955379   0.01083327
4294.00   0.42325381   0.01085804
4296.00   0.38727696   0.01061016
4298.00   0.42091373   0.01085211
4300.00   0.45420428   0.01101679
4302.00   0.45448180   0.01097381
4304.00   0.47179037   0.01126198
4306.00   0.47222310   0.01117628
4308.00   0.51910492   0.01141502
4310.00   0.52815758   0.01161145
4312.00   0.57381896   0.01210020
4314.00   0.58798379   0.01223676
4316.00   0.67460847   0.01269183
4318.00   0.73740992   0.01307315
4320.00   0.77569812   0.01329931
4322.00   0.81502910   0.01350174
4324.00   0.85761370   0.01375960
4326.00   0.87116866   0.01385332
4328.00   0.94015947   0.01415204
4330.00   0.98710725   0.01437811
4332.00   1.00988312   0.01447985
4334.00   1.01275863   0.01452174
4336.00   1.04170553   0.01469436
4338.00   1.02891118   0.01465328
4340.00   1.03885817   0.01465834
4342.00   0.95888411   0.01419963
4344.00   0.96862183   0.01423106
4346.00   0.97113287   0.01427183
4348.00   0.91729676   0.01402353
4350.00   0.89588397   0.01379252
4352.00   0.86028555   0.01352534
4354.00   0.83225009   0.01353746
4356.00   0.85411325   0.01512287
4358.00   0.85470112   0.01621979
4360.00   0.83072632   0.01533301
4362.00   0.76495618   0.01348277
4364.00   0.75508142   0.01293710
4366.00   0.75419066   0.01288900
4368.00   0.78553842   0.01302692
4370.00   0.79124821   0.01302080
4372.00   0.82349265   0.01320147
4374.00   0.85064492   0.01342459
4376.00   0.87462756   0.01353197
4378.00   0.90793441   0.01373334
4380.00   0.91770303   0.01367555
4382.00   0.92588241   0.01376167
4384.00   0.92080112   0.01367686
4386.00   0.98862176   0.01406253
4388.00   0.96925793   0.01393875
4390.00   0.97735593   0.01402460
4392.00   0.99758589   0.01406976
4394.00   1.04162979   0.01423232
4396.00   1.04203828   0.01434355
4398.00   1.09122588   0.01458209
4400.00   1.12136525   0.01474142
4402.00   1.12300848   0.01473087
4404.00   1.11931267   0.01469755
4406.00   1.06587309   0.01442875
4408.00   1.08908044   0.01451451
4410.00   1.06207787   0.01442058
4412.00   1.02965578   0.01429287
4414.00   1.04160958   0.01431416
4416.00   1.00202148   0.01409796
4418.00   0.97326052   0.01388731
4420.00   1.01090610   0.01403589
4422.00   0.96855512   0.01385986
4424.00   0.98025419   0.01385949
4426.00   1.00922622   0.01396159
4428.00   1.01279133   0.01395699
4430.00   0.96732929   0.01378921
4432.00   0.96874532   0.01375072
4434.00   0.97736030   0.01376279
4436.00   0.99373436   0.01382636
4438.00   0.98166481   0.01373230
4440.00   0.98551204   0.01377842
4442.00   1.03934305   0.01405757
4444.00   1.07194885   0.01418900
4446.00   1.09488843   0.01435950
4448.00   1.15032046   0.01462188
4450.00   1.21961757   0.01491013
4452.00   1.23506407   0.01496941
4454.00   1.23434836   0.01489730
4456.00   1.23087958   0.01493594
4458.00   1.20444680   0.01482948
4460.00   1.18318984   0.01467153
4462.00   1.14877076   0.01444597
4464.00   1.14634597   0.01444470
4466.00   1.09894560   0.01420108
4468.00   1.06629468   0.01405945
4470.00   1.05042214   0.01396657
4472.00   1.03950696   0.01383109
4474.00   1.00111047   0.01370711
4476.00   0.97512588   0.01352681
4478.00   1.00782666   0.01360812
4480.00   0.96973556   0.01350473
4482.00   0.97676626   0.01347426
4484.00   0.91959436   0.01314392
4486.00   0.92639503   0.01328013
4488.00   0.92145532   0.01317884
4490.00   0.90547380   0.01307877
4492.00   0.88134379   0.01298988
4494.00   0.82852893   0.01265764
4496.00   0.80798147   0.01258151
4498.00   0.79225541   0.01247589
4500.00   0.78098820   0.01236995
4502.00   0.76651979   0.01236451
4504.00   0.72709953   0.01208499
4506.00   0.74539353   0.01215031
4508.00   0.73511829   0.01206587
4510.00   0.72661566   0.01205809
4512.00   0.69114225   0.01182470
4514.00   0.70109202   0.01184407
4516.00   0.68710939   0.01176538
4518.00   0.66869857   0.01163837
4520.00   0.66792866   0.01165007
4522.00   0.69495106   0.01175472
4524.00   0.69815457   0.01183922
4526.00   0.67776132   0.01174207
4528.00   0.69278523   0.01176609
4530.00   0.68240958   0.01177127
4532.00   0.71154746   0.01192914
4534.00   0.69395683   0.01184262
4536.00   0.70077057   0.01181795
4538.00   0.73945973   0.01206162
4540.00   0.75365779   0.01216271
4542.00   0.79543815   0.01239760
4544.00   0.80549676   0.01255369
4546.00   0.86314501   0.01273749
4548.00   0.91820129   0.01297164
4550.00   0.90365625   0.01295934
4552.00   0.93177456   0.01306739
4554.00   1.02068634   0.01350203
4556.00   1.05410644   0.01368677
4558.00   1.05897242   0.01375704
4560.00   1.13489982   0.01407284
4562.00   1.15991414   0.01422702
4564.00   1.27691617   0.01473839
4566.00   1.36927842   0.01514562
4568.00   1.41492491   0.01532624
4570.00   1.51724681   0.01575796
4572.00   1.65423946   0.01634971
4574.00   1.72262476   0.01664348
4576.00   1.74586630   0.01678524
4578.00   1.83140542   0.01713816
4580.00   1.90963753   0.01740048
4582.00   1.87336737   0.01730880
4584.00   1.86611536   0.01724085
4586.00   1.86818115   0.01720195
4588.00   1.86900977   0.01721758
4590.00   1.84029989   0.01717067
4592.00   1.84406029   0.01709925
4594.00   1.80830091   0.01696915
4596.00   1.76877350   0.01676923
4598.00   1.77097626   0.01671875
4600.00   1.73558437   0.01656339
4602.00   1.67357697   0.01630338
4604.00   1.68122935   0.01634701
4606.00   1.63495605   0.01616542
4608.00   1.64665797   0.01621477
4610.00   1.69857763   0.01645713
4612.00   1.69098586   0.01633818
4614.00   1.71305078   0.01644321
4616.00   1.75305305   0.01662796
4618.00   1.79416259   0.01675878
4620.00   1.77958063   0.01670250
4622.00   1.77668414   0.01667704
4624.00   1.79143172   0.01675738
4626.00   1.77835587   0.01670926
4628.00   1.78640002   0.01674612
4630.00   1.77512351   0.01667060
4632.00   1.80531510   0.01673153
4634.00   1.75786039   0.01658625
4636.00   1.76961328   0.01661357
4638.00   1.74203002   0.01649947
4640.00   1.71740144   0.01641822
4642.00   1.76263958   0.01660385
4644.00   1.76464455   0.01654507
4646.00   1.74115001   0.01648762
4648.00   1.78728842   0.01661088
4650.00   1.78035273   0.01663340
4652.00   1.82357910   0.01679695
4654.00   1.82626150   0.01678941
4656.00   1.83107627   0.01681456
4658.00   1.83697480   0.01685751
4660.00   1.84770683   0.01689630
4662.00   1.82267177   0.01678598
4664.00   1.86699239   0.01693874
4666.00   1.85877396   0.01692541
4668.00   1.87478340   0.01692003
4670.00   1.84084492   0.01684595
4672.00   1.81498624   0.01676052
4674.00   1.82214997   0.01676615
4676.00   1.81553732   0.01673240
4678.00   1.80232824   0.01665309
4680.00   1.76286415   0.01646847
4682.00   1.76404590   0.01645809
4684.00   1.76222084   0.01644698
4686.00   1.77059121   0.01646106
4688.00   1.73796890   0.01626387
4690.00   1.71546374   0.01617336
4692.00   1.71358500   0.01614774
4694.00   1.70254013   0.01612424
4696.00   1.65539466   0.01594339
4698.00   1.65779799   0.01588902
4700.00   1.63691990   0.01578976
4702.00   1.63095818   0.01575503
4704.00   1.59714669   0.01560236
4706.00   1.53008796   0.01538185
4708.00   1.53680735   0.01542057
4710.00   1.50948256   0.01523563
4712.00   1.50998599   0.01527037
4714.00   1.51661237   0.01526420
4716.00   1.48624435   0.01514199
4718.00   1.50672797   0.01523176
4720.00   1.52328335   0.01524025
4722.00   1.51819381   0.01520433
4724.00   1.56549379   0.01542976
4726.00   1.60801784   0.01558793
4728.00   1.59958054   0.01556767
4730.00   1.57557862   0.01545846
4732.00   1.58716561   0.01551895
4734.00   1.56958896   0.01546153
4736.00   1.56319484   0.01541995
4738.00   1.54069744   0.01537532
4740.00   1.53623720   0.01537091
4742.00   1.54649902   0.01544133
4744.00   1.53421913   0.01535373
4746.00   1.49980906   0.01511291
4748.00   1.51184012   0.01510500
4750.00   1.45011699   0.01481286
4752.00   1.42499018   0.01473395
4754.00   1.38788440   0.01456578
4756.00   1.37322150   0.01444443
4758.00   1.34031554   0.01424608
4760.00   1.29050363   0.01400172
4762.00   1.24530210   0.01380547
4764.00   1.22278619   0.01370066
4766.00   1.17089816   0.01345438
4768.00   1.10467429   0.01313617
4770.00   1.06059692   0.01291438
4772.00   0.99295480   0.01251634
4774.00   0.93793081   0.01229128
4776.00   0.89051868   0.01200882
4778.00   0.82179062   0.01166670
4780.00   0.78402748   0.01144098
4782.00   0.73632810   0.01110438
4784.00   0.70344107   0.01086193
4786.00   0.64576613   0.01052265
4788.00   0.61890569   0.01038820
4790.00   0.57613614   0.01009843
4792.00   0.54345536   0.00992035
4794.00   0.52701239   0.00978039
4796.00   0.51507591   0.00968574
4798.00   0.47681685   0.00938853
4800.00   0.46441085   0.00959164
4802.00   0.45218721   0.00923696
4804.00   0.42132903   0.00905278
4806.00   0.45152502   0.00916347
4808.00   0.44227790   0.00918340
4810.00   0.44423799   0.00907907
4812.00   0.45523369   0.00921986
4814.00   0.47288610   0.00938689
4816.00   0.46868234   0.00942013
4818.00   0.50781924   0.00959796
4820.00   0.53949425   0.00979372
4822.00   0.54366236   0.00985149
4824.00   0.62550874   0.01031173
4826.00   0.67377660   0.01058596
4828.00   0.74084309   0.01105120
4830.00   0.82454854   0.01142262
4832.00   0.97444751   0.01218689
4834.00   1.07538251   0.01273784
4836.00   1.22726474   0.01342860
4838.00   1.34670841   0.01396701
4840.00   1.51418644   0.01463211
4842.00   1.60484117   0.01501083
4844.00   1.72435073   0.01544068
4846.00   1.76759292   0.01561223
4848.00   1.87679606   0.01597307
4850.00   1.93277774   0.01615182
4852.00   2.01561136   0.01643974
4854.00   2.07969662   0.01665258
4856.00   2.15106975   0.01683538
4858.00   2.12981903   0.01681441
4860.00   2.15782297   0.01689655
4862.00   2.22227830   0.01713064
4864.00   2.21657423   0.01707054
4866.00   2.19872869   0.01697900
4868.00   2.18726750   0.01695274
4870.00   2.17560824   0.01682534
4872.00   2.10628974   0.01657454
4874.00   2.05826913   0.01644775
4876.00   1.99831156   0.01619725
4878.00   1.92888848   0.01594785
4880.00   1.92707270   0.01620373
4882.00   1.89076454   0.01661104
4884.00   1.73199443   0.01573910
4886.00   1.66776631   0.01503878
4888.00   1.58893818   0.01460892
4890.00   1.53247444   0.01434618
4892.00   1.47217760   0.01410278
4894.00   1.45323575   0.01402303
4896.00   1.46197487   0.01404951
4898.00   1.46202328   0.01404111
4900.00   1.46874981   0.01407818
4902.00   1.54568053   0.01439845
4904.00   1.62240326   0.01465639
4906.00   1.64134976   0.01471900
4908.00   1.72541424   0.01503901
4910.00   1.77711953   0.01522761
4912.00   1.86814342   0.01557764
4914.00   1.90753283   0.01569793
4916.00   1.95967247   0.01589344
4918.00   2.01890274   0.01610943
4920.00   2.08337305   0.01631834
4922.00   2.14393592   0.01650170
4924.00   2.14229068   0.01646134
4926.00   2.18883541   0.01660808
4928.00   2.23510371   0.01673366
4930.00   2.21424566   0.01663394
4932.00   2.22141909   0.01666767
4934.00   2.23125980   0.01672053
4936.00   2.24549660   0.01678664
4938.00   2.23693814   0.01675372
4940.00   2.27836553   0.01687531
4942.00   2.19299036   0.01653609
4944.00   2.19102014   0.01652425
4946.00   2.18689356   0.01647258
4948.00   2.15364479   0.01636159
4950.00   2.18417301   0.01648322
4952.00   2.10510237   0.01622198
4954.00   2.03387828   0.01597713
4956.00   2.01363948   0.01588333
4958.00   1.95892632   0.01565267
4960.00   1.87249187   0.01542406
4962.00   1.84843787   0.01595318
4964.00   1.72656534   0.01480179
4966.00   1.65969511   0.01462001
4968.00   1.56670578   0.01424672
4970.00   1.49519722   0.01397444
4972.00   1.41648568   0.01371071
4974.00   1.34371775   0.01342132
4976.00   1.26243366   0.01311677
4978.00   1.24932855   0.01321572
4980.00   1.20300463   0.01323190
4982.00   1.13221850   0.01283837
4984.00   1.05732132   0.01233561
4986.00   1.02248862   0.01209339
4988.00   1.03373704   0.01208367
4990.00   1.04589779   0.01209401
4992.00   1.08546779   0.01226212
4994.00   1.15204067   0.01254001
4996.00   1.21232610   0.01278861
4998.00   1.29048234   0.01310250
5000.00   1.36881404   0.01339658
5002.00   1.42557995   0.01364760
5004.00   1.51987920   0.01402839
5006.00   1.57071295   0.01421472
5008.00   1.65867508   0.01458363
5010.00   1.73133649   0.01476564
5012.00   1.76475822   0.01493552
5014.00   1.84652930   0.01521890
5016.00   1.90305213   0.01542199
5018.00   1.93094616   0.01552811
5020.00   1.97977535   0.01570185
5022.00   2.01482637   0.01581896
5024.00   2.07555624   0.01601810
5026.00   2.15085441   0.01678984
5028.00   2.24930022   0.01788679
5030.00   2.19139534   0.01740326
5032.00   2.14371295   0.01648141
5034.00   2.11636611   0.01619371
5036.00   2.08019235   0.01601409
5038.00   2.07032078   0.01599574
5040.00   2.04692743   0.01584747
5042.00   2.02881801   0.01581315
5044.00   2.02923086   0.01581849
5046.00   1.98616413   0.01569048
5048.00   1.96287397   0.01563309
5050.00   1.95557758   0.01561592
5052.00   1.95230264   0.01557102
5054.00   1.92802942   0.01548968
5056.00   1.89990736   0.01542252
5058.00   1.84342108   0.01522915
5060.00   1.87453637   0.01529796
5062.00   1.88502163   0.01534264
5064.00   1.84294151   0.01522400
5066.00   1.80905116   0.01516123
5068.00   1.81017744   0.01516062
5070.00   1.79038180   0.01506515
5072.00   1.76715198   0.01498046
5074.00   1.78069241   0.01503185
5076.00   1.74023048   0.01486602
5078.00   1.71157330   0.01479648
5080.00   1.69546885   0.01482084
5082.00   1.70076867   0.01491112
5084.00   1.68488503   0.01491360
5086.00   1.64217449   0.01474834
5088.00   1.60070307   0.01450067
5090.00   1.59950050   0.01439098
5092.00   1.55576598   0.01421070
5094.00   1.52897008   0.01410498
5096.00   1.49785382   0.01399129
5098.00   1.46029163   0.01387261
5100.00   1.42659839   0.01376797
5102.00   1.45740860   0.01379636
5104.00   1.37141217   0.01345859
5106.00   1.38057726   0.01344775
5108.00   1.31891474   0.01325412
5110.00   1.27349178   0.01308749
5112.00   1.24004612   0.01291990
5114.00   1.16263687   0.01263083
5116.00   1.11548589   0.01244838
5118.00   1.07406981   0.01220482
5120.00   1.03387478   0.01198934
5122.00   0.97383933   0.01170134
5124.00   0.95768013   0.01164416
5126.00   0.89967763   0.01135458
5128.00   0.88018561   0.01121259
5130.00   0.83926831   0.01101434
5132.00   0.82047587   0.01094872
5134.00   0.80044526   0.01087840
5136.00   0.78407270   0.01081788
5138.00   0.79723308   0.01088478
5140.00   0.81966945   0.01099430
5142.00   0.87388601   0.01128403
5144.00   0.88185179   0.01134982
5146.00   0.92705481   0.01155595
5148.00   0.95047375   0.01170669
5150.00   0.99616171   0.01202515
5152.00   1.02940878   0.01217583
5154.00   1.07252243   0.01238986
5156.00   1.08442161   0.01247301
5158.00   1.14881018   0.01271078
5160.00   1.17486704   0.01285457
5162.00   1.21587914   0.01303417
5164.00   1.26513451   0.01324242
5166.00   1.28738570   0.01338704
5168.00   1.33095093   0.01355613
5170.00   1.40339631   0.01386716
5172.00   1.46419629   0.01416736
5174.00   1.50047761   0.01429805
5176.00   1.51906549   0.01442712
5178.00   1.61785675   0.01484886
5180.00   1.63798237   0.01492935
5182.00   1.66440287   0.01503493
5184.00   1.68486790   0.01513076
5186.00   1.69793806   0.01523824
5188.00   1.68631570   0.01521923
5190.00   1.68554672   0.01518073
5192.00   1.67351677   0.01512339
5194.00   1.69485495   0.01522199
5196.00   1.63883068   0.01507354
5198.00   1.61280972   0.01501499
5200.00   1.60194697   0.01502186
5202.00   1.58613990   0.01495887
5204.00   1.57622096   0.01494100
5206.00   1.58367103   0.01495755
5208.00   1.60560876   0.01506911
5210.00   1.65617071   0.01532920
5212.00   1.62088064   0.01518514
5214.00   1.64565791   0.01531771
5216.00   1.64238879   0.01532848
5218.00   1.66537352   0.01546894
5220.00   1.66783725   0.01553676
5222.00   1.71548080   0.01573810
5224.00   1.69957616   0.01571199
5226.00   1.69289145   0.01566428
5228.00   1.70870261   0.01568769
5230.00   1.69322843   0.01568333
5232.00   1.64531378   0.01553014
5234.00   1.67168907   0.01561936
5236.00   1.61608979   0.01547463
5238.00   1.60821917   0.01552554
5240.00   1.53831527   0.01519637
5242.00   1.50956953   0.01511916
5244.00   1.53011376   0.01523698
5246.00   1.53831180   0.01526405
5248.00   1.53222865   0.01523981
5250.00   1.52431239   0.01522214
5252.00   1.54255233   0.01539790
5254.00   1.57517256   0.01552831
5256.00   1.58436150   0.01564558
5258.00   1.60643349   0.01577632
5260.00   1.63264926   0.01593815
5262.00   1.62649385   0.01591518
5264.00   1.64125683   0.01598387
5266.00   1.60452568   0.01586313
5268.00   1.60124082   0.01588088
5270.00   1.60253403   0.01586464
5272.00   1.58594301   0.01588822
5274.00   1.55350864   0.01577228
5276.00   1.53470050   0.01575132
5278.00   1.52013865   0.01569389
5280.00   1.50830739   0.01564362
5282.00   1.43718734   0.01542320
5284.00   1.44512711   0.01546898
5286.00   1.40743045   0.01528566
5288.00   1.40431591   0.01534275
5290.00   1.42635253   0.01541399
5292.00   1.43534895   0.01552025
5294.00   1.50920398   0.01582886
5296.00   1.48560083   0.01582942
5298.00   1.48429785   0.01583300
5300.00   1.52781564   0.01608444
5302.00   1.56193894   0.01619749
5304.00   1.55962702   0.01624635
5306.00   1.56884599   0.01633320
5308.00   1.62947114   0.01668971
5310.00   1.62031812   0.01671283
5312.00   1.65197921   0.01692913
5314.00   1.65669994   0.01695618
5316.00   1.67510937   0.01704635
5318.00   1.71945433   0.01728438
5320.00   1.76535139   0.01753202
5322.00   1.73609328   0.01742983
5324.00   1.75076741   0.01756947
5326.00   1.77633613   0.01772715
5328.00   1.79461886   0.01785507
5330.00   1.75506093   0.01771022
5332.00   1.73587780   0.01770613
5334.00   1.71034098   0.01764623
5336.00   1.73760418   0.01784732
5338.00   1.76570515   0.01797223
5340.00   1.78329755   0.01811265
5342.00   1.76833380   0.01807342
5344.00   1.78658137   0.01820719
5346.00   1.77662720   0.01817787
5348.00   1.74256778   0.01811674
5350.00   1.74832261   0.01813956
5352.00   1.75582290   0.01819893
5354.00   1.74509393   0.01820198
5356.00   1.75042953   0.01828684
5358.00   1.77689774   0.01835527
5360.00   1.68930727   0.01810299
5362.00   1.73417694   0.01826032
5364.00   1.71491503   0.01824595
5366.00   1.72404967   0.01825959
5368.00   1.74021050   0.01840932
5370.00   1.77270826   0.01858376
5372.00   1.75147924   0.01857191
5374.00   1.72648767   0.01854386
5376.00   1.73231310   0.01862451
5378.00   1.68723946   0.01851276
5380.00   1.67569297   0.01845154
5382.00   1.63929860   0.01832772
5384.00   1.68612387   0.01857014
5386.00   1.66005096   0.01849851
5388.00   1.64207463   0.01846594
5390.00   1.60924613   0.01842041
5392.00   1.60619894   0.01838165
5394.00   1.65858798   0.01874582
5396.00   1.65243062   0.01871799
5398.00   1.65891345   0.01883967
5400.00   1.67966830   0.01898042
5402.00   1.67060828   0.01900823
5404.00   1.67416750   0.01911532
5406.00   1.64555014   0.01896250
5408.00   1.65153009   0.01908750
5410.00   1.69537092   0.01939773
5412.00   1.70743770   0.01954208
5414.00   1.73008767   0.01970243
5416.00   1.69746113   0.01969000
5418.00   1.72749064   0.01981898
5420.00   1.71396935   0.01980963
5422.00   1.71538538   0.01990526
5424.00   1.68830312   0.01987164
5426.00   1.72074497   0.02007380
5428.00   1.66202333   0.01983609
5430.00   1.68877339   0.02002669
5432.00   1.74343308   0.02031067
5434.00   1.73013275   0.02030430
5436.00   1.65528682   0.02003768
5438.00   1.69949945   0.02025893
5440.00   1.70980156   0.02038665
5442.00   1.70567796   0.02050722
5444.00   1.68149982   0.02032314
5446.00   1.71122938   0.02063088
5448.00   1.68839244   0.02050317
5450.00   1.61463958   0.00732206
5452.00   1.60310692   0.00804686
5454.00   1.58946431   0.00916791
5456.00   1.57716393   0.00918937
5458.00   1.56712145   0.00804019
5460.00   1.55417699   0.00768597
5462.00   1.53201276   0.00807216
5464.00   1.51654589   0.00833013
5466.00   1.51837295   0.00803196
5468.00   1.52661794   0.00746884
5470.00   1.51532435   0.00738854
5472.00   1.48139226   0.00785246
5474.00   1.47027665   0.00780012
5476.00   1.47818696   0.00732862
5478.00   1.47958601   0.00694675
5480.00   1.46408105   0.00685351
5482.00   1.44438136   0.00691061
5484.00   1.44133013   0.00694348
5486.00   1.45437396   0.00694592
5488.00   1.45079464   0.00720083
5490.00   1.43689716   0.00788993
5492.00   1.42370480   0.00813437
5494.00   1.40768874   0.00787231
5496.00   1.39463216   0.00746073
5498.00   1.39666462   0.00712866
5500.00   1.41157162   0.00666266
5502.00   1.42079377   0.00652616
5504.00   1.43023896   0.00669562
5506.00   1.44035876   0.00685392
5508.00   1.44809306   0.00705823
5510.00   1.45907122   0.00726777
5512.00   1.47918981   0.00743005
5514.00   1.50476313   0.00754859
5516.00   1.52662766   0.00747857
5518.00   1.55330962   0.00701834
5520.00   1.56829000   0.00697803
5522.00   1.56924093   0.00723653
5524.00   1.57007551   0.00762965
5526.00   1.57581460   0.00821255
5528.00   1.58326256   0.00885807
5530.00   1.59261334   0.00892413
5532.00   1.60284221   0.00848601
5534.00   1.61614478   0.00820972
5536.00   1.63707095   0.00761242
5538.00   1.65183890   0.00743697
5540.00   1.65886831   0.00820803
5542.00   1.66174614   0.00920709
5544.00   1.65348065   0.00933342
5546.00   1.62666839   0.00880308
5548.00   1.61743271   0.00871861
5550.00   1.61563134   0.00879785
5552.00   1.61882603   0.00888027
5554.00   1.63587266   0.00906783
5556.00   1.65089685   0.00921298
5558.00   1.63631666   0.00905208
5560.00   1.59634298   0.00860903
5562.00   1.58786589   0.00842205
5564.00   1.60838872   0.00826928
5566.00   1.60816264   0.00833627
5568.00   1.58722711   0.00865696
5570.00   1.56285614   0.00901156
5572.00   1.54449135   0.00937205
5574.00   1.52686059   0.00979218
5576.00   1.52705860   0.00964041
5578.00   1.55615854   0.00873715
5580.00   1.55955392   0.00826166
5582.00   1.53949195   0.00813903
5584.00   1.52081794   0.00799156
5586.00   1.51441938   0.00766055
5588.00   1.51347321   0.00725610
5590.00   1.51072043   0.00691760
5592.00   1.51081622   0.00653778
5594.00   1.50583673   0.00633530
5596.00   1.50024784   0.00630898
5598.00   1.48862821   0.00632569
5600.00   1.46696419   0.00638172
5602.00   1.44126076   0.00646687
5604.00   1.42215425   0.00651116
5606.00   1.40344191   0.00656400
5608.00   1.39233285   0.00647858
5610.00   1.39350146   0.00616864
5612.00   1.38700491   0.00601544
5614.00   1.36946374   0.00606505
5616.00   1.34870356   0.00617048
5618.00   1.33243108   0.00623095
5620.00   1.31728649   0.00631651
5622.00   1.30624270   0.00625731
5624.00   1.30027437   0.00601480
5626.00   1.29318535   0.00586811
5628.00   1.28358984   0.00579327
5630.00   1.27662474   0.00574599
5632.00   1.27692693   0.00571321
5634.00   1.28300929   0.00570633
5636.00   1.29425222   0.00578282
5638.00   1.31574315   0.00595428
5640.00   1.33164579   0.00609942
5642.00   1.34492660   0.00623258
5644.00   1.35511887   0.00642747
5646.00   1.36279619   0.00673359
5648.00   1.36967552   0.00704291
5650.00   1.37991989   0.00699741
5652.00   1.39158249   0.00650891
5654.00   1.40538615   0.00632576
5656.00   1.42456526   0.00630053
5658.00   1.43985993   0.00628903
5660.00   1.44787443   0.00626749
5662.00   1.45361686   0.00625846
5664.00   1.46487927   0.00620875
5666.00   1.48388499   0.00610736
5668.00   1.48825163   0.00606229
5670.00   1.47810960   0.00603801
5672.00   1.47295260   0.00604354
5674.00   1.47485989   0.00608846
5676.00   1.47884834   0.00616907
5678.00   1.48255968   0.00626933
5680.00   1.48856342   0.00640702
5682.00   1.48851919   0.00641254
5684.00   1.48279339   0.00625334
5686.00   1.47819978   0.00620465
5688.00   1.47564054   0.00630299
5690.00   1.47225952   0.00639095
5692.00   1.46372229   0.00630790
5694.00   1.45002741   0.00609096
5696.00   1.44441992   0.00601720
5698.00   1.44531482   0.00604052
5700.00   1.44456488   0.00603227
5702.00   1.44293982   0.00601173
5704.00   1.44015753   0.00597170
5706.00   1.43609637   0.00590447
5708.00   1.43003750   0.00581872
5710.00   1.42623407   0.00579425
5712.00   1.42446154   0.00581776
5714.00   1.42157596   0.00584273
5716.00   1.41582239   0.00591290
5718.00   1.41129553   0.00594362
5720.00   1.41140366   0.00587500
5722.00   1.41425192   0.00575452
5724.00   1.41241902   0.00573952
5726.00   1.40724534   0.00582383
5728.00   1.40218306   0.00583864
5730.00   1.39455932   0.00584046
5732.00   1.38903517   0.00581095
5734.00   1.38731354   0.00570327
5736.00   1.38772774   0.00559068
5738.00   1.38661069   0.00564424
5740.00   1.38414407   0.00584646
5742.00   1.38411540   0.00592007
5744.00   1.38636220   0.00596348
5746.00   1.38818997   0.00595362
5748.00   1.38976073   0.00581453
5750.00   1.39049816   0.00569546
5752.00   1.38929772   0.00580102
5754.00   1.38545310   0.00606211
5756.00   1.38383222   0.00607845
5758.00   1.38397616   0.00592454
5760.00   1.38315696   0.00579891
5762.00   1.37809610   0.00551920
5764.00   1.37530190   0.00541865
5766.00   1.38122821   0.00581705
5768.00   1.39245856   0.00646751
5770.00   1.39512354   0.00662308
5772.00   1.39667916   0.00653948
5774.00   1.38860232   0.00634079
5776.00   1.36398911   0.00578459
5778.00   1.34643042   0.00534572
5780.00   1.34684443   0.00530297
5782.00   1.35588062   0.00546110
5784.00   1.35676515   0.00551430
5786.00   1.35712218   0.00555764
5788.00   1.35128045   0.00566335
5790.00   1.33512169   0.00589532
5792.00   1.32490432   0.00601087
5794.00   1.32509643   0.00593094
5796.00   1.33006477   0.00574495
5798.00   1.33213943   0.00559830
5800.00   1.33638042   0.00535696
5802.00   1.33224815   0.00536277
5804.00   1.31921530   0.00559001
5806.00   1.30861807   0.00580117
5808.00   1.30310726   0.00604069
5810.00   1.29579604   0.00624957
5812.00   1.27776510   0.00627828
5814.00   1.24921459   0.00615803
5816.00   1.23700488   0.00598165
5818.00   1.24268693   0.00558096
5820.00   1.23429090   0.00535293
5822.00   1.20929062   0.00533201
5824.00   1.18552536   0.00536090
5826.00   1.17472976   0.00530424
5828.00   1.17077243   0.00521413
5830.00   1.16601944   0.00515475
5832.00   1.16697013   0.00511370
5834.00   1.16147923   0.00506365
5836.00   1.14916861   0.00500684
5838.00   1.13665706   0.00496429
5840.00   1.12694472   0.00493326
5842.00   1.11863315   0.00491499
5844.00   1.11204559   0.00492973
5846.00   1.10768390   0.00493280
5848.00   1.10315716   0.00505418
5850.00   1.09840310   0.00536568
5852.00   1.09517813   0.00554222
5854.00   1.09357935   0.00549509
5856.00   1.09551716   0.00534776
5858.00   1.10339385   0.00527737
5860.00   1.11511260   0.00517807
5862.00   1.13422561   0.00527312
5864.00   1.16562033   0.00567118
5866.00   1.19180721   0.00580118
5868.00   1.20907170   0.00554376
5870.00   1.22636998   0.00528575
5872.00   1.25534344   0.00550328
5874.00   1.29442483   0.00604901
5876.00   1.31728679   0.00605779
5878.00   1.32906801   0.00554756
5880.00   1.34087133   0.00536810
5882.00   1.34994638   0.00546252
5884.00   1.35617048   0.00565842
5886.00   1.36086857   0.00592625
5888.00   1.36449772   0.00627117
5890.00   1.37298542   0.00636878
5892.00   1.38284487   0.00629737
5894.00   1.39812887   0.00620634
5896.00   1.42152917   0.00600257
5898.00   1.44411492   0.00581467
5900.00   1.46573293   0.00568183
5902.00   1.48724550   0.00559566
5904.00   1.49317056   0.00564765
5906.00   1.48183668   0.00589151
5908.00   1.47703660   0.00599310
5910.00   1.47410923   0.00610051
5912.00   1.46827251   0.00609126
5914.00   1.45792186   0.00584727
5916.00   1.44628292   0.00554880
5918.00   1.43669295   0.00559774
5920.00   1.42408937   0.00596868
5922.00   1.42414701   0.00600019
5924.00   1.43713874   0.00581829
5926.00   1.44809830   0.00566931
5928.00   1.45915586   0.00553988
5930.00   1.46742499   0.00543446
5932.00   1.46576250   0.00540082
5934.00   1.45588070   0.00544196
5936.00   1.44963777   0.00541833
5938.00   1.44376367   0.00535204
5940.00   1.43606615   0.00531024
5942.00   1.42650193   0.00529854
5944.00   1.41716594   0.00529160
5946.00   1.40936750   0.00526028
5948.00   1.40244776   0.00519982
5950.00   1.39801186   0.00522895
5952.00   1.39703041   0.00534524
5954.00   1.39443654   0.00543239
5956.00   1.39021772   0.00553050
5958.00   1.38817191   0.00559770
5960.00   1.38962919   0.00553385
5962.00   1.39274287   0.00536137
5964.00   1.39281100   0.00547825
5966.00   1.39327836   0.00599513
5968.00   1.38820249   0.00605572
5970.00   1.37197268   0.00569296
5972.00   1.36493367   0.00540894
5974.00   1.37633330   0.00540720
5976.00   1.39524686   0.00550869
5978.00   1.40100139   0.00554862
5980.00   1.40112454   0.00564711
5982.00   1.39956027   0.00566112
5984.00   1.39056569   0.00557342
5986.00   1.38624197   0.00553975
5988.00   1.39155972   0.00563269
5990.00   1.40064025   0.00575702
5992.00   1.40373123   0.00579969
5994.00   1.40483338   0.00581620
5996.00   1.39953470   0.00574728
5998.00   1.38534272   0.00554769
6000.00   1.37417257   0.00540363
6002.00   1.36266017   0.00526349
6004.00   1.35639852   0.00518765
6006.00   1.36394989   0.00530758
6008.00   1.38396496   0.00559708
6010.00   1.38382238   0.00555425
6012.00   1.36539388   0.00508935
6014.00   1.35711616   0.00499584
6016.00   1.35627830   0.00530770
6018.00   1.35742766   0.00561083
6020.00   1.35637450   0.00569602
6022.00   1.35503101   0.00568284
6024.00   1.35706323   0.00567542
6026.00   1.36365706   0.00560689
6028.00   1.36620921   0.00557933
6030.00   1.36945754   0.00557801
6032.00   1.36915267   0.00557735
6034.00   1.36083168   0.00556991
6036.00   1.34906077   0.00555807
6038.00   1.34523165   0.00553079
6040.00   1.34943098   0.00553886
6042.00   1.34577101   0.00541161
6044.00   1.33332080   0.00501139
6046.00   1.32772046   0.00483439
6048.00   1.33500814   0.00507993
6050.00   1.34682071   0.00545065
6052.00   1.35079378   0.00559655
6054.00   1.35183901   0.00566593
6056.00   1.34901828   0.00570317
6058.00   1.33889431   0.00568625
6060.00   1.33305925   0.00564131
6062.00   1.33239448   0.00556341
6064.00   1.33091164   0.00545630
6066.00   1.32434630   0.00532859
6068.00   1.31392008   0.00515139
6070.00   1.31397784   0.00507462
6072.00   1.32875973   0.00510221
6074.00   1.32974786   0.00509420
6076.00   1.31687975   0.00505420
6078.00   1.30232453   0.00496351
6080.00   1.29228622   0.00480642
6082.00   1.28356123   0.00460617
6084.00   1.27838904   0.00467186
6086.00   1.28085428   0.00501404
6088.00   1.27483624   0.00520771
6090.00   1.26118106   0.00542857
6092.00   1.24824828   0.00553058
6094.00   1.24118376   0.00537170
6096.00   1.23697513   0.00503887
6098.00   1.22487682   0.00498705
6100.00   1.20043701   0.00525100
6102.00   1.19182861   0.00522287
6104.00   1.19514942   0.00493396
6106.00   1.19913924   0.00472564
6108.00   1.20223516   0.00476171
6110.00   1.20627499   0.00489736
6112.00   1.20910364   0.00490434
6114.00   1.21071643   0.00480590
6116.00   1.21360981   0.00483816
6118.00   1.21500605   0.00497367
6120.00   1.22082824   0.00507804
6122.00   1.23139727   0.00518125
6124.00   1.24567831   0.00525242
6126.00   1.26519018   0.00516519
6128.00   1.29205239   0.00488433
6130.00   1.30745310   0.00481032
6132.00   1.31337625   0.00487418
6134.00   1.32263666   0.00492882
6136.00   1.33355898   0.00499120
6138.00   1.34519053   0.00500964
6140.00   1.35814583   0.00497003
6142.00   1.37125701   0.00489451
6144.00   1.37823474   0.00481880
6146.00   1.37975276   0.00469233
6148.00   1.38149452   0.00463360
6150.00   1.38026911   0.00459474
6152.00   1.37934589   0.00462129
6154.00   1.38057119   0.00475198
6156.00   1.38270199   0.00494676
6158.00   1.38291997   0.00512528
6160.00   1.38093752   0.00544117
6162.00   1.38099092   0.00545335
6164.00   1.38301706   0.00511868
6166.00   1.38408512   0.00488855
6168.00   1.38438380   0.00492982
6170.00   1.38372606   0.00509457
6172.00   1.37896132   0.00518576
6174.00   1.36777717   0.00535309
6176.00   1.36336899   0.00528847
6178.00   1.36386621   0.00495122
6180.00   1.36332649   0.00469322
6182.00   1.36176103   0.00459021
6184.00   1.35870081   0.00455530
6186.00   1.35142249   0.00451953
6188.00   1.33955950   0.00452051
6190.00   1.33105713   0.00451565
6192.00   1.32515711   0.00450664
6194.00   1.31660497   0.00453233
6196.00   1.30490351   0.00462110
6198.00   1.29196012   0.00467496
6200.00   1.27921158   0.00461972
6202.00   1.26629877   0.00449202
6204.00   1.25819039   0.00447311
6206.00   1.25312126   0.00452776
6208.00   1.25099236   0.00456543
6210.00   1.25527078   0.00459269
6212.00   1.25792253   0.00467790
6214.00   1.25189489   0.00486016
6216.00   1.24237782   0.00504893
6218.00   1.24778241   0.00500879
6220.00   1.26699740   0.00467823
6222.00   1.28065836   0.00458747
6224.00   1.29617149   0.00465512
6226.00   1.30844128   0.00469362
6228.00   1.31424552   0.00465959
6230.00   1.31791079   0.00460364
6232.00   1.32819372   0.00456701
6234.00   1.34628701   0.00453021
6236.00   1.35393041   0.00451696
6238.00   1.35447770   0.00447957
6240.00   1.35413772   0.00453221
6242.00   1.35229731   0.00471690
6244.00   1.35057271   0.00493527
6246.00   1.35216427   0.00512434
6248.00   1.35370451   0.00540720
6250.00   1.36450100   0.00539671
6252.00   1.39246827   0.00507959
6254.00   1.40496719   0.00483529
6256.00   1.39829272   0.00466521
6258.00   1.38768643   0.00455388
6260.00   1.38538074   0.00453428
6262.00   1.38684225   0.00459978
6264.00   1.38164192   0.00464873
6266.00   1.37059498   0.00473737
6268.00   1.36167771   0.00479745
6270.00   1.35448074   0.00481135
6272.00   1.34777927   0.00483905
6274.00   1.33970755   0.00493987
6276.00   1.33130330   0.00506146
6278.00   1.33086675   0.00500213
6280.00   1.34284842   0.00468826
6282.00   1.34277004   0.00459493
6284.00   1.33032280   0.00461644
6286.00   1.32353222   0.00470384
6288.00   1.33001775   0.00492033
6290.00   1.34037238   0.00516752
6292.00   1.34047198   0.00513118
6294.00   1.33516079   0.00477460
6296.00   1.32915491   0.00470688
6298.00   1.31903219   0.00483614
6300.00   1.31022334   0.00490693
6302.00   1.30279845   0.00491361
6304.00   1.29666436   0.00490971
6306.00   1.29420692   0.00487136
6308.00   1.29743445   0.00478212
6310.00   1.29042345   0.00475106
6312.00   1.27093112   0.00467269
6314.00   1.26109469   0.00475204
6316.00   1.26238900   0.00516814
6318.00   1.26576281   0.00551074
6320.00   1.26583916   0.00535591
6322.00   1.26549113   0.00479968
6324.00   1.25969827   0.00452645
6326.00   1.24564785   0.00431483
6328.00   1.23805422   0.00420923
6330.00   1.23408216   0.00421544
6332.00   1.23174131   0.00433508
6334.00   1.23433411   0.00462243
6336.00   1.24048245   0.00501050
6338.00   1.22899896   0.00506489
6340.00   1.20091933   0.00485485
6342.00   1.17699641   0.00469522
6344.00   1.14694601   0.00444626
6346.00   1.12448967   0.00425722
6348.00   1.11821407   0.00417774
6350.00   1.11968637   0.00416277
6352.00   1.10737330   0.00422166
6354.00   1.08622319   0.00445611
6356.00   1.06969231   0.00449292
6358.00   1.05319989   0.00434973
6360.00   1.03732210   0.00429434
6362.00   1.02361363   0.00442844
6364.00   1.01183188   0.00457231
6366.00   1.00194985   0.00451661
6368.00   0.99363676   0.00430128
6370.00   0.99030492   0.00420902
6372.00   0.99426425   0.00413150
6374.00   0.99527672   0.00413325
6376.00   0.99323666   0.00428050
6378.00   0.98936936   0.00440593
6380.00   0.98420724   0.00435706
6382.00   0.97652203   0.00419907
6384.00   0.98157650   0.00408606
6386.00   1.00515425   0.00391151
6388.00   1.01319295   0.00383613
6390.00   1.01252154   0.00389865
6392.00   0.99995887   0.00397561
6394.00   0.96633071   0.00398948
6396.00   0.91562730   0.00399377
6398.00   0.89723668   0.00401453
6400.00   0.91104800   0.00410578
6402.00   0.90175980   0.00404628
6404.00   0.87750468   0.00380248
6406.00   0.85106936   0.00361780
6408.00   0.82761297   0.00363634
6410.00   0.80384099   0.00373778
6412.00   0.77681363   0.00365083
6414.00   0.74667150   0.00336779
6416.00   0.71698159   0.00324584
6418.00   0.68612316   0.00323246
6420.00   0.65554607   0.00321233
6422.00   0.62481904   0.00316990
6424.00   0.59513047   0.00311937
6426.00   0.56961364   0.00305568
6428.00   0.54799455   0.00297125
6430.00   0.52546239   0.00292366
6432.00   0.50337213   0.00292878
6434.00   0.48217218   0.00288773
6436.00   0.46108636   0.00276975
6438.00   0.44147202   0.00264977
6440.00   0.42564502   0.00262517
6442.00   0.41304421   0.00267360
6444.00   0.40203124   0.00268120
6446.00   0.39410490   0.00269590
6448.00   0.38627861   0.00268386
6450.00   0.37775134   0.00262577
6452.00   0.37070443   0.00257025
6454.00   0.36776336   0.00257313
6456.00   0.36802414   0.00261743
6458.00   0.36807211   0.00260794
6460.00   0.36705138   0.00254186
6462.00   0.37152049   0.00252737
6464.00   0.38090661   0.00254736
6466.00   0.39238214   0.00259884
6468.00   0.40608346   0.00266359
6470.00   0.42219649   0.00273680
6472.00   0.43536480   0.00289295
6474.00   0.44461660   0.00319800
6476.00   0.45974869   0.00330573
6478.00   0.47715093   0.00330143
6480.00   0.49914990   0.00325118
6482.00   0.52812287   0.00310257
6484.00   0.56117034   0.00289345
6486.00   0.59214532   0.00288141
6488.00   0.62277797   0.00304394
6490.00   0.65668574   0.00312799
6492.00   0.69139257   0.00320704
6494.00   0.73069286   0.00328867
6496.00   0.77684444   0.00336041
6498.00   0.82554457   0.00344714
6500.00   0.87049416   0.00359148
6502.00   0.91270700   0.00379114
6504.00   0.96465135   0.00392890
6506.00   1.02226216   0.00402321
6508.00   1.08544475   0.00413981
6510.00   1.15569848   0.00429018
6512.00   1.23028231   0.00444213
6514.00   1.30533004   0.00457554
6516.00   1.38238221   0.00470531
6518.00   1.47542846   0.00474600
6520.00   1.58616507   0.00462026
6522.00   1.69335443   0.00467372
6524.00   1.80158275   0.00479321
6526.00   1.91222185   0.00509394
6528.00   2.02557826   0.00566765
6530.00   2.14122546   0.00631752
6532.00   2.25617933   0.00656701
6534.00   2.37926984   0.00657787
6536.00   2.48344743   0.00655996
6538.00   2.57463980   0.00630736
6540.00   2.65764606   0.00621479
6542.00   2.73141527   0.00645438
6544.00   2.79770875   0.00682494
6546.00   2.86354148   0.00695236
6548.00   2.92774916   0.00684573
6550.00   2.98625743   0.00708075
6552.00   3.04053545   0.00770014
6554.00   3.08929038   0.00799606
6556.00   3.13424480   0.00787949
6558.00   3.17333984   0.00761366
6560.00   3.20588553   0.00755189
6562.00   3.23574305   0.00760873
6564.00   3.24383390   0.00757276
6566.00   3.22013199   0.00753590
6568.00   3.21377897   0.00741132
6570.00   3.22492456   0.00710889
6572.00   3.23963618   0.00683040
6574.00   3.25080144   0.00681077
6576.00   3.26311374   0.00697240
6578.00   3.26274300   0.00699623
6580.00   3.25012648   0.00688524
6582.00   3.23842347   0.00696870
6584.00   3.22556221   0.00721283
6586.00   3.21076107   0.00753914
6588.00   3.19502473   0.00799966
6590.00   3.17779398   0.00848348
6592.00   3.15052414   0.00842386
6594.00   3.11016130   0.00776686
6596.00   3.07641852   0.00737964
6598.00   3.04598081   0.00686124
6600.00   3.01559019   0.00660911
6602.00   2.98410821   0.00692381
6604.00   2.95092225   0.00740340
6606.00   2.91265011   0.00738857
6608.00   2.87011981   0.00698410
6610.00   2.82657444   0.00683906
6612.00   2.78050542   0.00681497
6614.00   2.73295486   0.00678107
6616.00   2.68173301   0.00663735
6618.00   2.63272631   0.00645782
6620.00   2.59510052   0.00641030
6622.00   2.56481910   0.00643664
6624.00   2.53402030   0.00641343
6626.00   2.50780618   0.00640776
6628.00   2.48014069   0.00635850
6630.00   2.44794905   0.00619730
6632.00   2.41403615   0.00601620
6634.00   2.38199508   0.00591846
6636.00   2.34951270   0.00586036
6638.00   2.31668901   0.00581764
6640.00   2.28244412   0.00586545
6642.00   2.25092745   0.00579779
6644.00   2.21984732   0.00555272
6646.00   2.19131327   0.00534846
6648.00   2.16725564   0.00535818
6650.00   2.14595246   0.00549409
6652.00   2.12152553   0.00553949
6654.00   2.09778941   0.00558674
6656.00   2.06953335   0.00558375
6658.00   2.03300190   0.00552659
6660.00   2.00018770   0.00545382
6662.00   1.97720540   0.00537141
6664.00   1.95878059   0.00529041
6666.00   1.93542290   0.00525680
6668.00   1.90670669   0.00526287
6670.00   1.88597810   0.00525790
6672.00   1.87460154   0.00530224
6674.00   1.85832059   0.00527260
6676.00   1.83232063   0.00509189
6678.00   1.80240560   0.00487092
6680.00   1.77551007   0.00484325
6682.00   1.74644971   0.00499293
6684.00   1.72540241   0.00497594
6686.00   1.71154791   0.00484511
6688.00   1.69836974   0.00475990
6690.00   1.68563569   0.00473194
6692.00   1.67347986   0.00470736
6694.00   1.66141015   0.00465812
6696.00   1.64937896   0.00460035
6698.00   1.63366628   0.00455234
6700.00   1.61318487   0.00450184
6702.00   1.59581935   0.00446745
6704.00   1.57975638   0.00444954
6706.00   1.56462300   0.00443693
6708.00   1.55091333   0.00440665
6710.00   1.53876060   0.00437801
6712.00   1.52926815   0.00447582
6714.00   1.52625829   0.00480425
6716.00   1.51565319   0.00484228
6718.00   1.50002551   0.00464583
6720.00   1.48271608   0.00445553
6722.00   1.46203810   0.00433715
6724.00   1.43899423   0.00424627
6726.00   1.42355090   0.00420954
6728.00   1.41413772   0.00425434
6730.00   1.40325248   0.00424887
6732.00   1.39294308   0.00420567
6734.00   1.38384897   0.00419698
6736.00   1.37569129   0.00426027
6738.00   1.36859614   0.00434875
6740.00   1.36211765   0.00436341
6742.00   1.35606515   0.00431722
6744.00   1.35174268   0.00430255
6746.00   1.35311466   0.00427003
6748.00   1.34718120   0.00428071
6750.00   1.33178008   0.00436723
6752.00   1.31359774   0.00447558
6754.00   1.29663926   0.00448535
6756.00   1.27552104   0.00441891
6758.00   1.27424443   0.00459964
6760.00   1.29971349   0.00518395
6762.00   1.30646038   0.00525712
6764.00   1.29596686   0.00480499
6766.00   1.28059059   0.00430428
6768.00   1.26531667   0.00412355
6770.00   1.24768853   0.00412287
6772.00   1.24176818   0.00407161
6774.00   1.24611807   0.00403398
6776.00   1.24925953   0.00405227
6778.00   1.25873870   0.00414031
6780.00   1.26333195   0.00426404
6782.00   1.25400716   0.00446338
6784.00   1.23692107   0.00470528
6786.00   1.23424554   0.00467604
6788.00   1.24655008   0.00434333
6790.00   1.24498868   0.00416223
6792.00   1.23087031   0.00401310
6794.00   1.22189069   0.00392355
6796.00   1.22585601   0.00389849
6798.00   1.23316854   0.00393029
6800.00   1.22706676   0.00400654
6802.00   1.20810640   0.00418574
6804.00   1.20310873   0.00428916
6806.00   1.20857888   0.00442460
6808.00   1.21028692   0.00442249
6810.00   1.20760810   0.00424415
6812.00   1.20387018   0.00403509
6814.00   1.20107418   0.00398166
6816.00   1.19926763   0.00402446
6818.00   1.19358838   0.00407393
6820.00   1.18020612   0.00421162
6822.00   1.17529315   0.00426988
6824.00   1.18283153   0.00423912
6826.00   1.19060838   0.00418368
6828.00   1.18708509   0.00416696
6830.00   1.17675495   0.00416955
6832.00   1.17128414   0.00412949
6834.00   1.16812491   0.00398473
6836.00   1.16276413   0.00399581
6838.00   1.15416777   0.00420121
6840.00   1.14807957   0.00434741
6842.00   1.14709890   0.00435292
6844.00   1.14905024   0.00431018
6846.00   1.15258431   0.00422912
6848.00   1.16169816   0.00401415
6850.00   1.16507363   0.00393319
6852.00   1.16428632   0.00396223
6854.00   1.16264588   0.00401038
6856.00   1.16102922   0.00403915
6858.00   1.15865189   0.00408377
6860.00   1.15546352   0.00420980
6862.00   1.14998072   0.00438171
6864.00   1.14757973   0.00461765
6866.00   1.14842337   0.00500710
6868.00   1.14728969   0.00524806
6870.00   1.14246351   0.00533384
6872.00   1.13873857   0.00526011
6874.00   1.13918036   0.00500382
6876.00   1.14236730   0.00446452
6878.00   1.14359629   0.00422025
6880.00   1.14472795   0.00417049
6882.00   1.14466006   0.00414638
6884.00   1.14432395   0.00418892
6886.00   1.14385307   0.00426583
6888.00   1.14116764   0.00429478
6890.00   1.13631964   0.00430518
6892.00   1.13531530   0.00447148
6894.00   1.13741571   0.00493070
6896.00   1.13871753   0.00499448
6898.00   1.14074367   0.00468157
6900.00   1.14144915   0.00436886
6902.00   1.13913548   0.00423503
6904.00   1.13501978   0.00417908
6906.00   1.13337207   0.00426193
6908.00   1.13350850   0.00464112
6910.00   1.13262439   0.00470607
6912.00   1.13061786   0.00449798
6914.00   1.12963998   0.00430335
6916.00   1.13242376   0.00427006
6918.00   1.13598841   0.00429917
6920.00   1.13121629   0.00429449
6922.00   1.11481518   0.00432497
6924.00   1.11218423   0.00430779
6926.00   1.12185633   0.00420399
6928.00   1.12646997   0.00418136
6930.00   1.12113345   0.00434088
6932.00   1.11278242   0.00453731
6934.00   1.11141145   0.00451610
6936.00   1.11458790   0.00429313
6938.00   1.11610353   0.00422308
6940.00   1.11919379   0.00422232
6942.00   1.11986065   0.00422613
6944.00   1.11557519   0.00420699
6946.00   1.11242217   0.00423259
6948.00   1.11796910   0.00440147
6950.00   1.13044733   0.00472134
6952.00   1.13357455   0.00472491
6954.00   1.13040119   0.00443168
6956.00   1.12820762   0.00424984
6958.00   1.12571806   0.00415543
6960.00   1.12338370   0.00410318
6962.00   1.12159294   0.00407321
6964.00   1.11972839   0.00407647
6966.00   1.11462241   0.00407452
6968.00   1.10291731   0.00407419
6970.00   1.09931183   0.00409518
6972.00   1.10387683   0.00409710
6974.00   1.10750073   0.00418164
6976.00   1.10448545   0.00444791
6978.00   1.10024279   0.00473052
6980.00   1.10556614   0.00467743
6982.00   1.12294805   0.00423366
6984.00   1.12734199   0.00412517
6986.00   1.12268060   0.00425945
6988.00   1.11855406   0.00432284
6990.00   1.11680251   0.00422674
6992.00   1.11672360   0.00408854
6994.00   1.11835158   0.00408579
6996.00   1.12311369   0.00418136
6998.00   1.12313497   0.00421261
7000.00   1.11888593   0.00423600
7002.00   1.11636239   0.00423655
7004.00   1.11514437   0.00421375
7006.00   1.11458945   0.00417414
7008.00   1.11663651   0.00409219
7010.00   1.12164712   0.00394117
7012.00   1.12200522   0.00403499
7014.00   1.12022495   0.00442093
7016.00   1.11639112   0.00458255
7018.00   1.10663837   0.00458729
7020.00   1.09891838   0.00452744
7022.00   1.09998965   0.00443177
7024.00   1.10610408   0.00428752
7026.00   1.11051971   0.00421299
7028.00   1.11660379   0.00417118
7030.00   1.12150347   0.00415390
7032.00   1.12691665   0.00418527
7034.00   1.12866646   0.00420925
7036.00   1.12352401   0.00419639
7038.00   1.11528575   0.00417197
7040.00   1.11558193   0.00419595
7042.00   1.12552828   0.00415844
7044.00   1.12438279   0.00437715
7046.00   1.11542189   0.00496286
7048.00   1.10695660   0.00525024
7050.00   1.09868145   0.00509633
7052.00   1.09138954   0.00474615
7054.00   1.08828670   0.00460090
7056.00   1.08820361   0.00454136
7058.00   1.08986074   0.00443100
7060.00   1.09534830   0.00427725
7062.00   1.09946436   0.00418379
7064.00   1.10340214   0.00415753
7066.00   1.10636538   0.00416609
7068.00   1.10734636   0.00416982
7070.00   1.10810828   0.00417518
7072.00   1.10269761   0.00430204
7074.00   1.08543742   0.00466458
7076.00   1.07978183   0.00474258
7078.00   1.08790684   0.00452701
7080.00   1.09581220   0.00428945
7082.00   1.09428036   0.00420371
7084.00   1.08795655   0.00418348
7086.00   1.08744693   0.00416982
7088.00   1.09030312   0.00417305
7090.00   1.09259725   0.00423022
7092.00   1.09543484   0.00439822
7094.00   1.09815943   0.00448846
7096.00   1.10128808   0.00441809
7098.00   1.10493785   0.00427146
7100.00   1.10402203   0.00421992
7102.00   1.09753823   0.00421569
7104.00   1.09425586   0.00420431
7106.00   1.09154874   0.00421109
7108.00   1.09064472   0.00420963
7110.00   1.09279215   0.00420394
7112.00   1.09670186   0.00419508
7114.00   1.09772909   0.00415731
7116.00   1.09897232   0.00399287
7118.00   1.09192210   0.00408509
7120.00   1.07227480   0.00446170
7122.00   1.06025058   0.00468469
7124.00   1.05810618   0.00468692
7126.00   1.06231582   0.00455895
7128.00   1.06802893   0.00442935
7130.00   1.07741714   0.00422850
7132.00   1.07963991   0.00414979
7134.00   1.07531011   0.00416974
7136.00   1.07406133   0.00418314
7138.00   1.07399952   0.00419766
7140.00   1.07575536   0.00421530
7142.00   1.08103538   0.00424171
7144.00   1.08905941   0.00427441
7146.00   1.09128422   0.00424962
7148.00   1.08970165   0.00417112
7150.00   1.08758765   0.00409859
7152.00   1.08220273   0.00395683
7154.00   1.07753462   0.00387933
7156.00   1.07780105   0.00395331
7158.00   1.08086419   0.00413633
7160.00   1.07752526   0.00436243
7162.00   1.06634253   0.00479435
7164.00   1.06354171   0.00488640
7166.00   1.06597698   0.00472084
7168.00   1.06900847   0.00456385
7170.00   1.07349002   0.00445943
7172.00   1.07927513   0.00436922
7174.00   1.08192158   0.00429099
7176.00   1.08328807   0.00420614
7178.00   1.08097517   0.00416739
7180.00   1.07016999   0.00415916
7182.00   1.06705952   0.00418726
7184.00   1.07736307   0.00427450
7186.00   1.08969569   0.00436960
7188.00   1.08866531   0.00441673
7190.00   1.07827514   0.00447319
7192.00   1.07497358   0.00446836
7194.00   1.07428747   0.00438857
7196.00   1.07354683   0.00432439
7198.00   1.07314396   0.00430554
7200.00   1.07362413   0.00428294
7202.00   1.07520491   0.00421774
7204.00   1.07736528   0.00412883
7206.00   1.08160514   0.00406840
7208.00   1.09159619   0.00399746
7210.00   1.09441990   0.00398484
7212.00   1.08910304   0.00406207
7214.00   1.08326387   0.00411001
7216.00   1.07949501   0.00404863
7218.00   1.07596409   0.00393560
7220.00   1.08130765   0.00400281
7222.00   1.10254234   0.00421795
7224.00   1.10662448   0.00439667
7226.00   1.09444934   0.00466711
7228.00   1.08703154   0.00477449
7230.00   1.09059972   0.00462581
7232.00   1.09862196   0.00436834
7234.00   1.10718274   0.00431335
7236.00   1.12746775   0.00433558
7238.00   1.12411028   0.00450970
7240.00   1.09386492   0.00501079
7242.00   1.07634330   0.00519216
7244.00   1.07938623   0.00495814
7246.00   1.08886176   0.00458245
7248.00   1.09157270   0.00441146
7250.00   1.09498513   0.00425351
7252.00   1.09186465   0.00434650
7254.00   1.07929325   0.00485447
7256.00   1.07220507   0.00503148
7258.00   1.07290518   0.00478955
7260.00   1.07551837   0.00440908
7262.00   1.07450771   0.00420243
7264.00   1.07199889   0.00403678
7266.00   1.07065916   0.00416076
7268.00   1.06862974   0.00472703
7270.00   1.06898987   0.00490260
7272.00   1.07016301   0.00476817
7274.00   1.07469749   0.00461467
7276.00   1.08666658   0.00458321
7278.00   1.10454082   0.00459010
7280.00   1.10788965   0.00452260
7282.00   1.10091126   0.00437765
7284.00   1.09232247   0.00428693
7286.00   1.07648897   0.00416660
7288.00   1.06497723   0.00416725
7290.00   1.06029087   0.00438813
7292.00   1.06166309   0.00467235
7294.00   1.07289255   0.00476640
7296.00   1.10037971   0.00475580
7298.00   1.11358529   0.00478342
7300.00   1.11962646   0.00481352
7302.00   1.12399691   0.00481169
7304.00   1.12794781   0.00477363
7306.00   1.13082057   0.00471121
7308.00   1.13071996   0.00462168
7310.00   1.12857676   0.00446741
7312.00   1.12172043   0.00438329
7314.00   1.10460413   0.00434242
7316.00   1.09607202   0.00431123
7318.00   1.09679466   0.00428046
7320.00   1.10411251   0.00427704
7322.00   1.11778808   0.00432634
7324.00   1.14031625   0.00443976
7326.00   1.14902169   0.00454291
7328.00   1.15162402   0.00472530
7330.00   1.14708239   0.00476072
7332.00   1.13124883   0.00465471
7334.00   1.11559433   0.00453651
7336.00   1.10698771   0.00447634
7338.00   1.10177231   0.00443247
7340.00   1.09620398   0.00444644
7342.00   1.09197849   0.00459869
7344.00   1.08750546   0.00458775
7346.00   1.08288598   0.00438201
7348.00   1.07990336   0.00419937
7350.00   1.08037269   0.00411957
7352.00   1.08351344   0.00412016
7354.00   1.08175814   0.00435213
7356.00   1.07389796   0.00496095
7358.00   1.07152778   0.00507557
7360.00   1.07286894   0.00485802
7362.00   1.07512182   0.00463816
7364.00   1.07778358   0.00441593
7366.00   1.08035600   0.00422796
7368.00   1.08024096   0.00427061
7370.00   1.07784063   0.00456229
7372.00   1.07642072   0.00457071
7374.00   1.07525384   0.00439125
7376.00   1.07353824   0.00424269
7378.00   1.07155228   0.00406748
7380.00   1.06830400   0.00395590
7382.00   1.06268108   0.00407377
7384.00   1.05413109   0.00437863
7386.00   1.04967713   0.00441077
7388.00   1.04881102   0.00417324
7390.00   1.04621291   0.00415360
7392.00   1.04079252   0.00435646
7394.00   1.03670371   0.00454876
7396.00   1.03609133   0.00461411
7398.00   1.03723586   0.00461637
7400.00   1.04129905   0.00471580
7402.00   1.05208987   0.00495545
7404.00   1.05643648   0.00501807
7406.00   1.05701792   0.00490225
7408.00   1.05363113   0.00473824
7410.00   1.04447705   0.00459918
7412.00   1.03112042   0.00445005
7414.00   1.02406639   0.00434338
7416.00   1.01910025   0.00421542
7418.00   1.01819909   0.00421529
7420.00   1.02171642   0.00426417
7422.00   1.02671480   0.00449465
7424.00   1.03421384   0.00501843
7426.00   1.04250205   0.00554148
7428.00   1.04563075   0.00554398
7430.00   1.04488289   0.00504200
7432.00   1.04639208   0.00489640
7434.00   1.04916883   0.00492826
7436.00   1.05002218   0.00492277
7438.00   1.05034506   0.00490949
7440.00   1.04950094   0.00486840
7442.00   1.04409516   0.00469475
7444.00   1.03287029   0.00437507
7446.00   1.03022635   0.00427599
7448.00   1.03314346   0.00437689
7450.00   1.03698456   0.00440130
7452.00   1.04347342   0.00438578
7454.00   1.04952431   0.00435924
7456.00   1.05250096   0.00430409
7458.00   1.05385804   0.00420631
7460.00   1.05157834   0.00422132
7462.00   1.04298520   0.00429216
7464.00   1.03872412   0.00443183
7466.00   1.03628999   0.00472346
7468.00   1.03708899   0.00495042
7470.00   1.04292017   0.00497241
7472.00   1.05214244   0.00486887
7474.00   1.05446333   0.00479657
7476.00   1.04991400   0.00469013
7478.00   1.05021745   0.00457629
7480.00   1.05553156   0.00444264
7482.00   1.05847275   0.00431346
7484.00   1.05626911   0.00415561
7486.00   1.05067283   0.00401144
7488.00   1.04196566   0.00404444
7490.00   1.02591664   0.00426652
7492.00   1.01938564   0.00438301
7494.00   1.01916552   0.00450219
7496.00   1.01958680   0.00457457
7498.00   1.02157885   0.00458469
7500.00   1.02390814   0.00456489
7502.00   1.02316940   0.00456205
7504.00   1.02001941   0.00455968
7506.00   1.01986200   0.00455435
7508.00   1.02052718   0.00454253
7510.00   1.02327085   0.00453666
7512.00   1.03164321   0.00453625
7514.00   1.03771627   0.00454110
7516.00   1.03240895   0.00455544
7518.00   1.01868725   0.00458065
7520.00   1.01021475   0.00460643
7522.00   0.99911103   0.00466833
7524.00   0.99565926   0.00466403
7526.00   1.00259334   0.00460138
7528.00   1.00998211   0.00449789
7530.00   1.01147771   0.00435058
7532.00   1.01122147   0.00415824
7534.00   1.01100802   0.00408284
7536.00   1.01265198   0.00408462
7538.00   1.00730935   0.00413111
7540.00   0.99400333   0.00421231
7542.00   0.98306048   0.00435706
7544.00   0.97699580   0.00460416
7546.00   0.97382227   0.00485800
7548.00   0.97488567   0.00494212
7550.00   0.98121658   0.00490393
7552.00   0.98704925   0.00488059
7554.00   0.99596182   0.00479315
7556.00   1.00267369   0.00474857
7558.00   1.00821590   0.00477924
7560.00   1.01089799   0.00481025
7562.00   1.00424218   0.00474968
7564.00   0.98590374   0.00461644
7566.00   0.98223493   0.00456252
7568.00   0.99054074   0.00456596
7570.00   0.99390832   0.00454386
7572.00   0.99239656   0.00450394
7574.00   0.98932990   0.00446713
7576.00   0.98558691   0.00444579
7578.00   0.97919416   0.00443634
7580.00   0.98024803   0.00442969
7582.00   0.98973024   0.00438264
7584.00   0.99477944   0.00443810
7586.00   0.99801069   0.00457479
7588.00   0.99606663   0.00478168
7590.00   0.98643905   0.00500616
7592.00   0.96985635   0.00525757
7594.00   0.95774564   0.00579786
7596.00   0.94116950   0.00655024
7598.00   0.93733168   0.00723704
7600.00   0.94813603   0.00814533
7602.00   0.95537207   0.00868809
7604.00   0.94753417   0.00870504
7606.00   0.93585628   0.00839740
7608.00   0.94841874   0.00797937
7610.00   0.98797202   0.00712944
7612.00   1.00594914   0.00655317
7614.00   1.01909482   0.00603803
7616.00   1.02043831   0.00567548
7618.00   1.00550437   0.00554862
7620.00   0.98079595   0.00560130
7622.00   0.95929375   0.00579686
7624.00   0.92937320   0.00628165
7626.00   0.92094311   0.00638578
7628.00   0.93392307   0.00630250
7630.00   0.94218233   0.00612415
7632.00   0.94189742   0.00568566
7634.00   0.93875316   0.00519014
7636.00   0.94054303   0.00509708
7638.00   0.94624123   0.00531198
7640.00   0.94223505   0.00541027
7642.00   0.92574522   0.00563301
7644.00   0.91923416   0.00565136
7646.00   0.92041653   0.00539402
7648.00   0.92580265   0.00511637
7650.00   0.93556839   0.00505084
7652.00   0.95027149   0.00509833
7654.00   0.96019825   0.00512041
7656.00   0.97003275   0.00529222
7658.00   0.97535062   0.00520431
7660.00   0.97447225   0.00475731
7662.00   0.97361332   0.00434500
7664.00   0.97661641   0.00423644
7666.00   0.98117387   0.00430869
7668.00   0.98298800   0.00438973
7670.00   0.98583150   0.00460313
7672.00   0.98149997   0.00470394
7674.00   0.96972695   0.00481746
7676.00   0.95763928   0.00479898
7678.00   0.94637516   0.00452062
7680.00   0.93638614   0.00416576
7682.00   0.92817515   0.00420288
7684.00   0.92014036   0.00458149
7686.00   0.91498131   0.00469265
7688.00   0.91544545   0.00470552
7690.00   0.91148385   0.00470280
7692.00   0.89920628   0.00467586
7694.00   0.88644832   0.00463530
7696.00   0.88299137   0.00460059
7698.00   0.88505241   0.00455777
7700.00   0.89114043   0.00451629
7702.00   0.90562826   0.00440586
7704.00   0.91661653   0.00443132
7706.00   0.92611867   0.00466841
7708.00   0.93235210   0.00488818
7710.00   0.93364766   0.00490506
7712.00   0.93087152   0.00480764
7714.00   0.92426339   0.00471391
7716.00   0.90984938   0.00451144
7718.00   0.90013486   0.00441347
7720.00   0.89508882   0.00441627
7722.00   0.88821679   0.00446485
7724.00   0.87650752   0.00457461
7726.00   0.86211208   0.00473053
7728.00   0.84517673   0.00460195
7730.00   0.82081428   0.00406990
7732.00   0.80502674   0.00382606
7734.00   0.79226846   0.00377386
7736.00   0.78623661   0.00378753
7738.00   0.78892627   0.00381468
7740.00   0.79824474   0.00389621
7742.00   0.80880925   0.00405749
7744.00   0.82649985   0.00428479
7746.00   0.83439738   0.00450464
7748.00   0.83158106   0.00484577
7750.00   0.83560032   0.00499971
7752.00   0.85098520   0.00490087
7754.00   0.86945811   0.00469632
7756.00   0.88029832   0.00453116
7758.00   0.88558635   0.00429251
7760.00   0.89693579   0.00419691
7762.00   0.91270950   0.00424269
7764.00   0.92706412   0.00425715
7766.00   0.94176608   0.00423787
7768.00   0.95281196   0.00422472
7770.00   0.95719200   0.00424248
7772.00   0.95736578   0.00428150
7774.00   0.95366210   0.00433993
7776.00   0.93924889   0.00443007
7778.00   0.93483528   0.00451621
7780.00   0.94107935   0.00463635
7782.00   0.94778210   0.00466793
7784.00   0.94785601   0.00452012
7786.00   0.94476277   0.00429224
7788.00   0.94939041   0.00449711
7790.00   0.95957604   0.00513008
7792.00   0.97000015   0.00543584
7794.00   0.98738611   0.00571063
7796.00   0.99752083   0.00580462
7798.00   0.98947567   0.00548155
7800.00   0.97695434   0.00497941
7802.00   0.99040428   0.00522660
7804.00   1.03013176   0.00617393
7806.00   1.04074991   0.00626070
7808.00   1.03266275   0.00577357
7810.00   1.02656269   0.00537889
7812.00   1.01813072   0.00496046
7814.00   1.00918311   0.00457453
7816.00   1.01203817   0.00465463
7818.00   1.02838922   0.00518865
7820.00   1.02387345   0.00535318
7822.00   1.00481725   0.00545340
7824.00   0.98467502   0.00538797
7826.00   0.95631519   0.00503450
7828.00   0.93399146   0.00469595
7830.00   0.93220228   0.00474345
7832.00   0.94439346   0.00504966
7834.00   0.95248553   0.00506708
7836.00   0.96807867   0.00493802
7838.00   0.97434193   0.00479481
7840.00   0.97007844   0.00455485
7842.00   0.96428522   0.00436855
7844.00   0.96193671   0.00434063
7846.00   0.96156359   0.00442106
7848.00   0.96378031   0.00448399
7850.00   0.97015187   0.00459179
7852.00   0.97372106   0.00467382
7854.00   0.98010361   0.00471686
7856.00   0.98159364   0.00481778
7858.00   0.97301930   0.00508077
7860.00   0.95974264   0.00536736
7862.00   0.95242360   0.00530432
7864.00   0.94991687   0.00482082
7866.00   0.94170597   0.00465504
7868.00   0.92668322   0.00467052
7870.00   0.91632342   0.00468383
7872.00   0.91237673   0.00461848
7874.00   0.91479036   0.00456977
7876.00   0.92641741   0.00468771
7878.00   0.95081019   0.00496176
7880.00   0.96014237   0.00502043
7882.00   0.95809245   0.00488951
7884.00   0.96043515   0.00487184
7886.00   0.96876195   0.00501684
7888.00   0.97535357   0.00512683
7890.00   0.97238642   0.00503447
7892.00   0.96167979   0.00480508
7894.00   0.95803913   0.00466116
7896.00   0.95607358   0.00447440
7898.00   0.95737299   0.00441394
7900.00   0.96552157   0.00453849
7902.00   0.97208598   0.00464265
7904.00   0.96972629   0.00458503
7906.00   0.96131477   0.00446311
7908.00   0.95650008   0.00461812
7910.00   0.95094308   0.00513185
7912.00   0.94848973   0.00525676
7914.00   0.94916186   0.00514311
7916.00   0.94951981   0.00498729
7918.00   0.94610229   0.00475862
7920.00   0.94227698   0.00450206
7922.00   0.94959807   0.00461962
7924.00   0.97200233   0.00517076
7926.00   0.97868651   0.00529425
7928.00   0.97668666   0.00515672
7930.00   0.97162977   0.00506739
7932.00   0.96131319   0.00505832
7934.00   0.95154825   0.00506820
7936.00   0.95312682   0.00509892
7938.00   0.96566522   0.00517042
7940.00   0.96753377   0.00519806
7942.00   0.96621150   0.00527036
7944.00   0.95944652   0.00520755
7946.00   0.94354317   0.00486608
7948.00   0.92766628   0.00450479
7950.00   0.92228374   0.00456340
7952.00   0.92377347   0.00493894
7954.00   0.92558473   0.00499978
7956.00   0.93065110   0.00486077
7958.00   0.93630382   0.00482905
7960.00   0.94480902   0.00487423
7962.00   0.95165554   0.00493472
7964.00   0.95479473   0.00500896
7966.00   0.95585001   0.00509320
7968.00   0.95597124   0.00513319
7970.00   0.95142874   0.00517581
7972.00   0.95318899   0.00514465
7974.00   0.96226117   0.00501245
7976.00   0.96796012   0.00484883
7978.00   0.96505168   0.00465341
7980.00   0.95751980   0.00444044
7982.00   0.95533878   0.00442504
7984.00   0.95672727   0.00459914
7986.00   0.95546004   0.00472734
7988.00   0.95415580   0.00489580
7990.00   0.95056111   0.00503727
7992.00   0.94094908   0.00516306
7994.00   0.92996988   0.00527598
7996.00   0.92969233   0.00533378
7998.00   0.93903959   0.00535560
8000.00   0.94200492   0.00533396
8002.00   0.94568986   0.00528668
8004.00   0.94391897   0.00516581
8006.00   0.93210018   0.00489839
8008.00   0.91927117   0.00460522
8010.00   0.91691706   0.00449340
8012.00   0.92062694   0.00449144
8014.00   0.92831367   0.00458778
8016.00   0.94673905   0.00488903
8018.00   0.95687991   0.00505698
8020.00   0.96041626   0.00511817
8022.00   0.96036929   0.00509487
8024.00   0.95647052   0.00498651
8026.00   0.94836572   0.00477449
8028.00   0.94285634   0.00478681
8030.00   0.93612650   0.00505364
8032.00   0.93268043   0.00512326
8034.00   0.93323934   0.00507459
8036.00   0.93533108   0.00493588
8038.00   0.93700671   0.00465614
8040.00   0.93977210   0.00426925
8042.00   0.94456038   0.00418445
8044.00   0.95092392   0.00438698
8046.00   0.95886382   0.00448063
8048.00   0.97189945   0.00457487
8050.00   0.98044190   0.00465734
8052.00   0.98139054   0.00473492
8054.00   0.97874439   0.00482148
8056.00   0.97879851   0.00494779
8058.00   0.98184523   0.00517325
8060.00   0.97850704   0.00526240
8062.00   0.97252628   0.00530693
8064.00   0.96089813   0.00524612
8066.00   0.93850994   0.00503629
8068.00   0.91608110   0.00477887
8070.00   0.91107091   0.00468934
8072.00   0.91903782   0.00472893
8074.00   0.92560798   0.00469632
8076.00   0.94273809   0.00465957
8078.00   0.94746393   0.00460295
8080.00   0.93609336   0.00449024
8082.00   0.92422429   0.00440359
8084.00   0.92449129   0.00443497
8086.00   0.93183863   0.00454513
8088.00   0.93410245   0.00451842
8090.00   0.93294868   0.00429264
8092.00   0.93577659   0.00430204
8094.00   0.94223508   0.00452324
8096.00   0.95068502   0.00476152
8098.00   0.96220917   0.00499807
8100.00   0.97597975   0.00523680
8102.00   0.97629932   0.00515546
8104.00   0.96171996   0.00461637
8106.00   0.95504814   0.00441235
8108.00   0.95091996   0.00438248
8110.00   0.94870889   0.00445722
8112.00   0.94867140   0.00464855
8114.00   0.95128509   0.00492684
8116.00   0.95461032   0.00514331
8118.00   0.96352625   0.00539577
8120.00   0.96288562   0.00548232
8122.00   0.95611683   0.00542607
8124.00   0.94570112   0.00536290
8126.00   0.92992923   0.00533261
8128.00   0.91469285   0.00527339
8130.00   0.91072991   0.00504035
8132.00   0.91411901   0.00453674
8134.00   0.92335922   0.00440439
8136.00   0.94901726   0.00457970
8138.00   0.96055350   0.00471820
8140.00   0.95656013   0.00486611
8142.00   0.94620538   0.00498494
8144.00   0.93413937   0.00500821
8146.00   0.91533062   0.00498114
8148.00   0.91219509   0.00498508
8150.00   0.92225438   0.00498970
8152.00   0.93059742   0.00498256
8154.00   0.94385165   0.00497831
8156.00   0.95081639   0.00502192
8158.00   0.94081092   0.00513138
8160.00   0.92046851   0.00526350
8162.00   0.91650966   0.00520705
8164.00   0.91907427   0.00489658
8166.00   0.92897597   0.00478806
8168.00   0.95915011   0.00481685
8170.00   0.97808531   0.00484806
8172.00   0.96831253   0.00479943
8174.00   0.94397265   0.00475094
8176.00   0.93527538   0.00492993
8178.00   0.93090984   0.00537329
8180.00   0.93351889   0.00556566
8182.00   0.95307964   0.00567996
8184.00   0.95888469   0.00570513
8186.00   0.93987343   0.00559384
8188.00   0.91312099   0.00541273
8190.00   0.90705401   0.00532583
8192.00   0.91779694   0.00528244
8194.00   0.91068605   0.00521193
8196.00   0.88151410   0.00506334
8198.00   0.87526751   0.00505578
8200.00   0.89951852   0.00526585
8202.00   0.92919266   0.00549300
8204.00   0.94578898   0.00552824
8206.00   0.96166918   0.00546049
8208.00   0.95016533   0.00533143
8210.00   0.89884087   0.00500583
8212.00   0.87370345   0.00482948
8214.00   0.86704585   0.00480851
8216.00   0.87112582   0.00485760
8218.00   0.88886204   0.00493526
8220.00   0.91859758   0.00504584
8222.00   0.92064494   0.00508976
8224.00   0.89519501   0.00511440
8226.00   0.88733163   0.00509940
8228.00   0.88209638   0.00497790
8230.00   0.88799384   0.00487809
8232.00   0.91712019   0.00484405
8234.00   0.95768440   0.00488186
8236.00   0.96654958   0.00510731
8238.00   0.94976836   0.00562367
8240.00   0.94275317   0.00578160
8242.00   0.93010390   0.00572809
8244.00   0.92640173   0.00563969
8246.00   0.93774864   0.00554451
8248.00   0.95334291   0.00545546
8250.00   0.95802149   0.00538583
8252.00   0.95708740   0.00531492
8254.00   0.95784885   0.00534843
8256.00   0.96157426   0.00557245
8258.00   0.95734009   0.00561408
8260.00   0.94178343   0.00541376
8262.00   0.92359939   0.00516705
8264.00   0.91175014   0.00513978
8266.00   0.90197620   0.00526417
8268.00   0.90188548   0.00535886
8270.00   0.91686454   0.00558501
8272.00   0.92196622   0.00561005
8274.00   0.91692191   0.00534017
8276.00   0.91174138   0.00509367
8278.00   0.91605332   0.00521405
8280.00   0.92663670   0.00557288
8282.00   0.92049298   0.00559291
8284.00   0.89777964   0.00537798
8286.00   0.88313615   0.00522232
8288.00   0.86929336   0.00496119
8290.00   0.86026445   0.00487486
8292.00   0.86105055   0.00522804
8294.00   0.86968863   0.00576709
8296.00   0.87194711   0.00579825
8298.00   0.87164390   0.00538705
8300.00   0.87122792   0.00521749
8302.00   0.86692223   0.00514839
8304.00   0.86772093   0.00507502
8306.00   0.87944642   0.00492326
8308.00   0.89634427   0.00476349
8310.00   0.90587589   0.00480240
8312.00   0.91610688   0.00510204
8314.00   0.91273266   0.00510611
8316.00   0.89208451   0.00477492
8318.00   0.87745875   0.00471545
8320.00   0.86988989   0.00508525
8322.00   0.86686763   0.00549259
8324.00   0.87015334   0.00567088
8326.00   0.88314608   0.00581175
8328.00   0.88033268   0.00567293
8330.00   0.86265892   0.00505925
8332.00   0.85216582   0.00471435
8334.00   0.84713620   0.00465269
8336.00   0.84529358   0.00472036
8338.00   0.84926298   0.00486226
8340.00   0.85987556   0.00510046
8342.00   0.85051808   0.00525447
8344.00   0.82033074   0.00540183
8346.00   0.80054528   0.00550953
8348.00   0.78626391   0.00561403
8350.00   0.77385417   0.00561432
8352.00   0.76420283   0.00545115
8354.00   0.75728902   0.00516180
8356.00   0.74256438   0.00489642
8358.00   0.72025084   0.00446641
8360.00   0.70182794   0.00432100
8362.00   0.68610716   0.00449282
8364.00   0.66796547   0.00458139
8366.00   0.64625883   0.00454481
8368.00   0.62253416   0.00445595
8370.00   0.59848523   0.00427351
8372.00   0.57337481   0.00391590
8374.00   0.54807201   0.00374414
8376.00   0.52219078   0.00371109
8378.00   0.49593911   0.00367088
8380.00   0.46874647   0.00364709
8382.00   0.44204660   0.00362848
8384.00   0.41812503   0.00355967
8386.00   0.39694250   0.00344350
8388.00   0.37369899   0.00338044
8390.00   0.34727712   0.00329396
8392.00   0.32545142   0.00332691
8394.00   0.31065345   0.00354122
8396.00   0.29665327   0.00373476
8398.00   0.27738933   0.00377851
8400.00   0.25536709   0.00374703
8402.00   0.23463911   0.00359233
8404.00   0.20858517   0.00315662
8406.00   0.19395610   0.00291413
8408.00   0.19229907   0.00280326
8410.00   0.19168565   0.00280254
8412.00   0.18604533   0.00298761
8414.00   0.17825328   0.00329901
8416.00   0.17059647   0.00337441
8418.00   0.15822740   0.00331159
8420.00   0.15526608   0.00325626
8422.00   0.16122314   0.00306064
8424.00   0.16651502   0.00297618
8426.00   0.16833230   0.00320282
8428.00   0.16817841   0.00353141
8430.00   0.16605357   0.00358566
8432.00   0.15861966   0.00347860
8434.00   0.15941362   0.00335506
8436.00   0.16602842   0.00308188
8438.00   0.17349315   0.00288161
8440.00   0.18181864   0.00280509
8442.00   0.19160405   0.00279282
8444.00   0.20159052   0.00278241
8446.00   0.21205693   0.00278896
8448.00   0.22396819   0.00287383
8450.00   0.24033099   0.00309550
8452.00   0.25094298   0.00319285
8454.00   0.25223815   0.00313189
8456.00   0.25527141   0.00307881
8458.00   0.27061670   0.00317567
8460.00   0.29421216   0.00334946
8462.00   0.31190741   0.00350242
8464.00   0.32956615   0.00371233
8466.00   0.34379598   0.00383446
8468.00   0.35312408   0.00389736
8470.00   0.36249363   0.00390774
8472.00   0.37279510   0.00381562
8474.00   0.38200043   0.00361768
8476.00   0.40042095   0.00364869
8478.00   0.42756531   0.00388911
8480.00   0.45452602   0.00402706
8482.00   0.48456159   0.00412351
8484.00   0.51219043   0.00419732
8486.00   0.53575677   0.00426197
8488.00   0.55692458   0.00430612
8490.00   0.57774854   0.00431045
8492.00   0.59306675   0.00424118
8494.00   0.61863410   0.00423064
8496.00   0.65336806   0.00421617
8498.00   0.68723619   0.00427634
8500.00   0.71881565   0.00442326
8502.00   0.75071457   0.00460182
8504.00   0.78271329   0.00472647
8506.00   0.81535295   0.00480162
8508.00   0.84006241   0.00497283
8510.00   0.85885963   0.00510468
8512.00   0.87447837   0.00544949
8514.00   0.88441822   0.00625613
8516.00   0.89333904   0.00677824
8518.00   0.90542552   0.00637071
8520.00   0.91902819   0.00508337
8522.00   0.92118341   0.00456844
8524.00   0.91270149   0.00456474
8526.00   0.90472692   0.00456451
8528.00   0.89689761   0.00476339
8530.00   0.88714486   0.00494139
8532.00   0.87215963   0.00490956
8534.00   0.85213485   0.00472339
8536.00   0.82881144   0.00459913
8538.00   0.79640412   0.00438445
8540.00   0.77255234   0.00435541
8542.00   0.75357249   0.00449014
8544.00   0.73731136   0.00465260
8546.00   0.72442168   0.00480326
8548.00   0.71390045   0.00493708
8550.00   0.70126489   0.00498692
8552.00   0.69044441   0.00503233
8554.00   0.67517135   0.00495722
8556.00   0.65386754   0.00473284
8558.00   0.63495156   0.00446640
8560.00   0.62140876   0.00416834
8562.00   0.60948321   0.00387761
8564.00   0.59520099   0.00378576
8566.00   0.57934880   0.00390967
8568.00   0.56623808   0.00387967
8570.00   0.55288404   0.00377561
8572.00   0.54418048   0.00370240
8574.00   0.54129794   0.00364817
8576.00   0.54076040   0.00360596
8578.00   0.53981411   0.00358411
8580.00   0.54049405   0.00356843
8582.00   0.53970644   0.00363174
8584.00   0.53583077   0.00380617
8586.00   0.53693733   0.00391353
8588.00   0.54195905   0.00395619
8590.00   0.54971349   0.00395559
8592.00   0.56221876   0.00394813
8594.00   0.57958919   0.00393034
8596.00   0.59224415   0.00399150
8598.00   0.59915927   0.00414369
8600.00   0.61392993   0.00424017
8602.00   0.63449097   0.00425839
8604.00   0.65896481   0.00430366
8606.00   0.68673873   0.00449786
8608.00   0.71635056   0.00475431
8610.00   0.74392954   0.00479300
8612.00   0.77208427   0.00461098
8614.00   0.79796427   0.00459049
8616.00   0.81810796   0.00461991
8618.00   0.84361210   0.00471156
8620.00   0.88091680   0.00490363
8622.00   0.92140305   0.00513013
8624.00   0.94695574   0.00524752
8626.00   0.96018159   0.00528291
8628.00   0.97911867   0.00539898
8630.00   0.99615127   0.00561956
8632.00   1.01730150   0.00571230
8634.00   1.04482627   0.00565729
8636.00   1.07511342   0.00555250
8638.00   1.10110539   0.00545843
8640.00   1.12256610   0.00531077
8642.00   1.15171629   0.00537943
8644.00   1.18795240   0.00559335
8646.00   1.22209245   0.00586890
8648.00   1.25639009   0.00626458
8650.00   1.28633964   0.00668255
8652.00   1.30594087   0.00705560
8654.00   1.31664658   0.00741406
8656.00   1.33802199   0.00752262
8658.00   1.36971074   0.00742137
8660.00   1.39197397   0.00729326
8662.00   1.41171896   0.00704756
8664.00   1.42129731   0.00676401
8666.00   1.41201770   0.00645038
8668.00   1.39036196   0.00611169
8670.00   1.38546532   0.00609476
8672.00   1.39032018   0.00652904
8674.00   1.39308101   0.00657739
8676.00   1.39817315   0.00624975
8678.00   1.40274531   0.00611662
8680.00   1.40505409   0.00645750
8682.00   1.40740353   0.00698599
8684.00   1.41362101   0.00724448
8686.00   1.42569488   0.00747180
8688.00   1.43006450   0.00745091
8690.00   1.42931610   0.00707236
8692.00   1.42748976   0.00682221
8694.00   1.42441034   0.00684047
8696.00   1.42177385   0.00693200
8698.00   1.42383206   0.00688858
8700.00   1.43146998   0.00682064
8702.00   1.43052828   0.00664567
8704.00   1.42821264   0.00630229
8706.00   1.41607887   0.00601079
8708.00   1.39098525   0.00572928
8710.00   1.36240500   0.00552357
8712.00   1.33714974   0.00552705
8714.00   1.31106943   0.00571232
8716.00   1.29731500   0.00583555
8718.00   1.29682875   0.00607080
8720.00   1.29249763   0.00611155
8722.00   1.28843528   0.00596347
8724.00   1.28311890   0.00577425
8726.00   1.27372849   0.00558467
8728.00   1.26185775   0.00537977
8730.00   1.25668299   0.00536428
8732.00   1.25749558   0.00549008
8734.00   1.25591266   0.00567498
8736.00   1.25389451   0.00604947
8738.00   1.25227076   0.00630737
8740.00   1.25130665   0.00639061
8742.00   1.25054324   0.00637311
8744.00   1.24982351   0.00620282
8746.00   1.25463474   0.00570666
8748.00   1.24574310   0.00551020
8750.00   1.22369540   0.00549030
8752.00   1.20314062   0.00551679
8754.00   1.18420267   0.00558177
8756.00   1.16747707   0.00570235
8758.00   1.15963167   0.00584519
8760.00   1.16178936   0.00600217
8762.00   1.15350872   0.00617767
8764.00   1.13941461   0.00646696
8766.00   1.12520981   0.00657941
8768.00   1.10915202   0.00648705
8770.00   1.09277219   0.00633809
8772.00   1.07841182   0.00619708
8774.00   1.06507415   0.00598956
8776.00   1.05595475   0.00585799
8778.00   1.05339712   0.00579558
8780.00   1.04631245   0.00569871
8782.00   1.03320885   0.00551536
8784.00   1.02339953   0.00540516
8786.00   1.02489173   0.00547751
8788.00   1.03372818   0.00567127
8790.00   1.02906477   0.00592442
8792.00   1.01161665   0.00648597
8794.00   1.00290316   0.00656609
8796.00   0.99910882   0.00621839
8798.00   0.99496740   0.00580826
8800.00   0.99257252   0.00545708
8802.00   0.99022266   0.00510969
8804.00   0.97490436   0.00495931
8806.00   0.94492429   0.00505101
8808.00   0.92332616   0.00504439
8810.00   0.90103355   0.00501786
8812.00   0.88472274   0.00503076
8814.00   0.87538803   0.00508342
8816.00   0.87111390   0.00516826
8818.00   0.87077200   0.00532685
8820.00   0.87775239   0.00555913
8822.00   0.87813982   0.00576634
8824.00   0.88062111   0.00605424
8826.00   0.87190938   0.00619956
8828.00   0.84380418   0.00615787
8830.00   0.81759137   0.00605578
8832.00   0.81725350   0.00604248
8834.00   0.83595833   0.00609947
8836.00   0.83125493   0.00597091
8838.00   0.80730262   0.00563425
8840.00   0.79532367   0.00536149
8842.00   0.79143658   0.00509297
8844.00   0.79144210   0.00495446
8846.00   0.79477352   0.00508830
8848.00   0.80179101   0.00543135
8850.00   0.80652121   0.00552237
8852.00   0.81599921   0.00552761
8854.00   0.81387180   0.00544137
8856.00   0.79908368   0.00511640
8858.00   0.78527802   0.00491033
8860.00   0.77688298   0.00507324
8862.00   0.77150518   0.00540524
8864.00   0.76812270   0.00558361
8866.00   0.76928976   0.00583593
8868.00   0.76435629   0.00583510
8870.00   0.75384361   0.00555940
8872.00   0.74665061   0.00529472
8874.00   0.74527279   0.00507974
8876.00   0.74356002   0.00492345
8878.00   0.73203442   0.00498599
8880.00   0.70846444   0.00523085
8882.00   0.70149937   0.00547760
8884.00   0.70923468   0.00590345
8886.00   0.71136636   0.00613149
8888.00   0.70525143   0.00615290
8890.00   0.69667372   0.00601023
8892.00   0.69078833   0.00567156
8894.00   0.68413392   0.00499713
8896.00   0.68912706   0.00475603
8898.00   0.71125051   0.00486817
8900.00   0.72074622   0.00495285
8902.00   0.71834719   0.00510369
8904.00   0.71355361   0.00520883
8906.00   0.70909390   0.00515062
8908.00   0.70174581   0.00498465
8910.00   0.70413482   0.00498262
8912.00   0.71808580   0.00506336
8914.00   0.72445214   0.00518589
8916.00   0.72753036   0.00542929
8918.00   0.72684622   0.00560352
8920.00   0.71881977   0.00563756
8922.00   0.70560673   0.00558214
8924.00   0.70303255   0.00545296
8926.00   0.70883632   0.00513530
8928.00   0.71207100   0.00498455
8930.00   0.71624130   0.00493989
8932.00   0.71959394   0.00491279
8934.00   0.72176901   0.00486658
8936.00   0.72248825   0.00486792
8938.00   0.72134033   0.00501726
8940.00   0.71460938   0.00533402
8942.00   0.72160131   0.00546578
8944.00   0.74042132   0.00542509
8946.00   0.75911200   0.00551665
8948.00   0.78211698   0.00579746
8950.00   0.80044428   0.00613973
8952.00   0.80125409   0.00639129
8954.00   0.78955674   0.00663213
8956.00   0.77128011   0.00676918
8958.00   0.73256335   0.00694408
8960.00   0.71003622   0.00683231
8962.00   0.70396575   0.00630953
8964.00   0.70288903   0.00568220
8966.00   0.69932455   0.00527675
8968.00   0.69679877   0.00497189
8970.00   0.69539726   0.00479795
8972.00   0.69873717   0.00484627
8974.00   0.69533432   0.00486273
8976.00   0.68096083   0.00476084
8978.00   0.67101291   0.00486380
8980.00   0.67710474   0.00546205
8982.00   0.69117123   0.00626714
8984.00   0.69390100   0.00651405
8986.00   0.68597707   0.00646531
8988.00   0.68991870   0.00635238
8990.00   0.70336929   0.00593119
8992.00   0.71438932   0.00563730
8994.00   0.72009996   0.00568026
8996.00   0.72215489   0.00590153
8998.00   0.72082496   0.00614634
9000.00   0.71335307   0.00659973
9002.00   0.71043020   0.00670355
9004.00   0.71025804   0.00660719
9006.00   0.70900831   0.00641646
9008.00   0.70368263   0.00600845
9010.00   0.69871953   0.00551624
9012.00   0.70089021   0.00529976
9014.00   0.70915869   0.00527027
9016.00   0.71234977   0.00525437
9018.00   0.71510351   0.00539582
9020.00   0.71410400   0.00542995
9022.00   0.71011767   0.00533738
9024.00   0.70261312   0.00522870
9026.00   0.68952471   0.00518815
9028.00   0.67093256   0.00517895
9030.00   0.66249594   0.00513647
9032.00   0.66112652   0.00504675
9034.00   0.66008437   0.00501813
9036.00   0.66127551   0.00503033
9038.00   0.66152957   0.00511805
9040.00   0.66073537   0.00529104
9042.00   0.65949148   0.00550547
9044.00   0.65781295   0.00557487
9046.00   0.65515947   0.00547168
9048.00   0.65352708   0.00552348
9050.00   0.65086544   0.00572948
9052.00   0.64985922   0.00589976
9054.00   0.65350771   0.00595829
9056.00   0.65872398   0.00593466
9058.00   0.65591273   0.00575671
9060.00   0.64216915   0.00526999
9062.00   0.63941967   0.00504178
9064.00   0.64456338   0.00494600
9066.00   0.64846641   0.00491748
9068.00   0.64817548   0.00498698
9070.00   0.64644298   0.00509986
9072.00   0.64685720   0.00511330
9074.00   0.64840630   0.00505336
9076.00   0.65141317   0.00508537
9078.00   0.65511429   0.00517962
9080.00   0.66119754   0.00526535
9082.00   0.67306033   0.00536965
9084.00   0.68348116   0.00544539
9086.00   0.68423200   0.00543627
9088.00   0.67816737   0.00536287
9090.00   0.67617154   0.00533792
9092.00   0.67186302   0.00527287
9094.00   0.67368761   0.00532800
9096.00   0.68305790   0.00551694
9098.00   0.69416571   0.00572277
9100.00   0.70498645   0.00593088
9102.00   0.71649170   0.00612895
9104.00   0.71487385   0.00606865
9106.00   0.69519851   0.00559187
9108.00   0.68964610   0.00550038
9110.00   0.69746634   0.00573623
9112.00   0.69859102   0.00590904
9114.00   0.68106490   0.00587228
9116.00   0.65665054   0.00574027
9118.00   0.65973154   0.00563608
9120.00   0.69224158   0.00539756
9122.00   0.70379549   0.00539753
9124.00   0.70938841   0.00569456
9126.00   0.70738184   0.00582607
9128.00   0.69491091   0.00565321
9130.00   0.67730767   0.00539858
9132.00   0.66698155   0.00538937
9134.00   0.65749952   0.00552741
9136.00   0.66182247   0.00566963
9138.00   0.68830717   0.00602618
9140.00   0.69941574   0.00609723
9142.00   0.69089976   0.00569711
9144.00   0.67697158   0.00518916
9146.00   0.67297876   0.00516642
9148.00   0.67494598   0.00544631
9150.00   0.66527057   0.00575160
9152.00   0.63988954   0.00633729
9154.00   0.62899825   0.00661931
9156.00   0.63561302   0.00662382
9158.00   0.64260480   0.00647916
9160.00   0.63672623   0.00633589
9162.00   0.62338570   0.00618091
9164.00   0.61479431   0.00612154
9166.00   0.60105971   0.00611978
9168.00   0.60127476   0.00615391
9170.00   0.62026346   0.00637855
9172.00   0.63359633   0.00645688
9174.00   0.63030416   0.00613683
9176.00   0.61740011   0.00551448
9178.00   0.60319665   0.00516267
9180.00   0.57677948   0.00493222
9182.00   0.56807116   0.00478393
9184.00   0.57208124   0.00473280
9186.00   0.57785094   0.00477728
9188.00   0.58744511   0.00494032
9190.00   0.59746444   0.00517567
9192.00   0.59420371   0.00541660
9194.00   0.57368982   0.00581976
9196.00   0.57442585   0.00584547
9198.00   0.59007469   0.00548837
9200.00   0.60526028   0.00524192
9202.00   0.61741853   0.00507626
9204.00   0.63039190   0.00510353
9206.00   0.64969745   0.00563229
9208.00   0.67755526   0.00663195
9210.00   0.68124056   0.00670309
9212.00   0.65646249   0.00595017
9214.00   0.64942914   0.00552897
9216.00   0.65544194   0.00527926
9218.00   0.66904932   0.00534267
9220.00   0.69510129   0.00602899
9222.00   0.73508930   0.00708380
9224.00   0.74183261   0.00730099
9226.00   0.71519420   0.00697890
9228.00   0.70619527   0.00673189
9230.00   0.70698413   0.00618161
9232.00   0.71097770   0.00582384
9234.00   0.72112384   0.00619407
9236.00   0.73655140   0.00690549
9238.00   0.72770241   0.00691074
9240.00   0.68435562   0.00627020
9242.00   0.67516133   0.00605166
9244.00   0.69228664   0.00613430
9246.00   0.70846197   0.00617240
9248.00   0.71617499   0.00597917
9250.00   0.71969917   0.00568180
9252.00   0.72058809   0.00554047
9254.00   0.71666482   0.00546017
9256.00   0.71412688   0.00544007
9258.00   0.71289554   0.00543694
9260.00   0.70814279   0.00559859
9262.00   0.69537601   0.00596095
9264.00   0.68306661   0.00630665
9266.00   0.68050978   0.00654173
9268.00   0.68380734   0.00684299
9270.00   0.68392158   0.00682668
9272.00   0.68579435   0.00644362
9274.00   0.68391040   0.00617791
9276.00   0.67488226   0.00599541
9278.00   0.66763395   0.00587319
9280.00   0.66943681   0.00589428
9282.00   0.67697722   0.00602335
9284.00   0.67816365   0.00623092
9286.00   0.67450470   0.00668522
9288.00   0.67445791   0.00685732
9290.00   0.67842460   0.00666601
9292.00   0.68092158   0.00655019
9294.00   0.67920679   0.00674441
9296.00   0.67433107   0.00706386
9298.00   0.67154175   0.00747266
9300.00   0.66455737   0.00809082
9302.00   0.67035499   0.00849575
9304.00   0.68935645   0.00875186
9306.00   0.70453805   0.00905127
9308.00   0.71492663   0.00943392
9310.00   0.71920818   0.00982514
9312.00   0.70794088   0.01012300
9314.00   0.67908365   0.01040432
9316.00   0.65826628   0.01054173
9318.00   0.63119122   0.01058449
9320.00   0.61597207   0.01052201
9322.00   0.61972398   0.01035075
9324.00   0.63083482   0.01007398
9326.00   0.63076174   0.00963897
9328.00   0.62370065   0.00889424
9330.00   0.62618649   0.00865138
9332.00   0.63852736   0.00870479
9334.00   0.64379969   0.00899182
9336.00   0.64150748   0.00974730
9338.00   0.63804021   0.01038865
9340.00   0.63561061   0.01039858
9342.00   0.63121158   0.00999905
9344.00   0.64428872   0.00975677
9346.00   0.68916407   0.00940435
9348.00   0.70002848   0.00916572
9350.00   0.67914778   0.00914239
9352.00   0.65091667   0.00904991
9354.00   0.62319270   0.00866178
9356.00   0.59202021   0.00810811
9358.00   0.58583713   0.00782654
9360.00   0.61024022   0.00756438
9362.00   0.61376277   0.00770075
9364.00   0.59870654   0.00805979
9366.00   0.59392723   0.00879425
9368.00   0.61423174   0.00996343
9370.00   0.64646864   0.01130738
9372.00   0.66258949   0.01245042
9374.00   0.68038633   0.01400412
9376.00   0.67234203   0.01428546
9378.00   0.62919661   0.01363857
9380.00   0.59988916   0.01271595
9382.00   0.59461853   0.01127253
9384.00   0.60118836   0.00961187
9386.00   0.60589632   0.00888013
9388.00   0.61235079   0.00897075
9390.00   0.62977973   0.00906431
9392.00   0.66934109   0.00976111
9394.00   0.68831453   0.00995266
9396.00   0.68396747   0.00972081
9398.00   0.67160109   0.00938086
9400.00   0.66489798   0.00901408
9402.00   0.66034466   0.00859412
9404.00   0.64881855   0.00831083
9406.00   0.62738591   0.00801294
9408.00   0.61365217   0.00794425
9410.00   0.60468963   0.00823634
9412.00   0.60181582   0.00864698
9414.00   0.60801941   0.00909752
9416.00   0.61898839   0.00967797
9418.00   0.62087026   0.01000279
9420.00   0.61638507   0.01037142
9422.00   0.61430985   0.01025085
9424.00   0.60805744   0.00954050
9426.00   0.60686982   0.00888540
9428.00   0.61372018   0.00848852
9430.00   0.62654763   0.00828654
9432.00   0.64244795   0.00855732
9434.00   0.66870245   0.00906026
9436.00   0.68039468   0.01012607
9438.00   0.68549702   0.01226824
9440.00   0.68274391   0.01323835
9442.00   0.66752648   0.01279138
9444.00   0.64811292   0.01158601
9446.00   0.63973981   0.01044824
9448.00   0.63790560   0.00852507
9450.00   0.63161698   0.00793351
9452.00   0.62721270   0.00882125
9454.00   0.61676976   0.00935012
9456.00   0.59077507   0.00964925
9458.00   0.56820774   0.00991698
9460.00   0.57320279   0.01016895
9462.00   0.59795806   0.01049196
9464.00   0.61322355   0.01028771
9466.00   0.63230956   0.00926817
9468.00   0.64443097   0.00878264
9470.00   0.65060368   0.00886212
9472.00   0.64939818   0.00922796
9474.00   0.64090073   0.00982272
9476.00   0.62704667   0.01063691
9478.00   0.60852635   0.01069070
9480.00   0.56637940   0.01014668
9482.00   0.56030893   0.00962124
9484.00   0.59530193   0.00870642
9486.00   0.62500921   0.00797049
9488.00   0.62904531   0.00782828
9490.00   0.61968449   0.00811265
9492.00   0.61062506   0.00838227
9494.00   0.59691402   0.00866337
9496.00   0.57990086   0.00930811
9498.00   0.53976819   0.01070502
9500.00   0.53071555   0.01126627
9502.00   0.58009481   0.01065134
9504.00   0.64572549   0.00955213
9506.00   0.64806998   0.00903966
9508.00   0.59209332   0.00872564
9510.00   0.58684683   0.00855236
9512.00   0.61358267   0.00859416
9514.00   0.63051522   0.00872004
9516.00   0.63005680   0.00904812
9518.00   0.62682471   0.00940759
9520.00   0.63339263   0.00956756
9522.00   0.64517832   0.00958172
9524.00   0.65638429   0.00979053
9526.00   0.67104727   0.01039616
9528.00   0.68274030   0.01043868
9530.00   0.69224203   0.00963786
9532.00   0.69809380   0.00870821
9534.00   0.69919035   0.00849236
9536.00   0.69528371   0.00869502
9538.00   0.70427784   0.00902656
9540.00   0.72715881   0.00982351
9542.00   0.74179307   0.01021130
9544.00   0.75112027   0.01019238
9546.00   0.75774652   0.01027546
9548.00   0.76555324   0.01084397
9550.00   0.76906964   0.01148915
9552.00   0.74973735   0.01130658
9554.00   0.69442523   0.01013175
9556.00   0.67375970   0.00967391
9558.00   0.67655101   0.00953134
9560.00   0.67937881   0.00956231
9562.00   0.67598641   0.00969242
9564.00   0.67021787   0.00997372
9566.00   0.66358009   0.01053555
9568.00   0.65445307   0.01157951
9570.00   0.65201283   0.01160615
9572.00   0.65930098   0.01076606
9574.00   0.65813053   0.01004040
9576.00   0.64543673   0.00928174
9578.00   0.63130799   0.00852891
9580.00   0.62617099   0.00816742
9582.00   0.62383372   0.00803679
9584.00   0.63133514   0.00831442
9586.00   0.65739590   0.00938254
9588.00   0.66934797   0.00979497
9590.00   0.66626099   0.00950398
9592.00   0.65612280   0.00898439
9594.00   0.64292553   0.00864705
9596.00   0.62341407   0.00830765
9598.00   0.61151415   0.00815172
9600.00   0.61001575   0.00807169
9602.00   0.59509808   0.00825593
9604.00   0.55431032   0.00878649
9606.00   0.53176790   0.00922410
9608.00   0.55789271   0.00951840
9610.00   0.61436316   0.00978578
9612.00   0.63529697   0.00964576
9614.00   0.64117277   0.00890035
9616.00   0.63933384   0.00855444
9618.00   0.62629545   0.00838886
9620.00   0.60996306   0.00838629
9622.00   0.58831862   0.00857426
9624.00   0.56629121   0.00886720
9626.00   0.55896991   0.00912157
9628.00   0.56209180   0.00951307
9630.00   0.56643814   0.00960676
9632.00   0.57744834   0.00944467
9634.00   0.58772981   0.00928750
9636.00   0.59964201   0.00922689
9638.00   0.60976815   0.00918881
9640.00   0.60806733   0.00893450
9642.00   0.59443387   0.00844028
9644.00   0.58965105   0.00811800
9646.00   0.58773735   0.00781152
9648.00   0.58762372   0.00762705
9650.00   0.59037861   0.00762869
9652.00   0.59103951   0.00772005
9654.00   0.58550972   0.00778960
9656.00   0.57335436   0.00787331
9658.00   0.56673992   0.00797560
9660.00   0.56121600   0.00815090
9662.00   0.55984026   0.00822569
9664.00   0.55872002   0.00814557
9666.00   0.56116509   0.00811043
9668.00   0.57102117   0.00825142
9670.00   0.58645731   0.00854887
9672.00   0.59774816   0.00889382
9674.00   0.61198345   0.00953958
9676.00   0.61641586   0.00968901
9678.00   0.61385843   0.00952791
9680.00   0.60776788   0.00921018
9682.00   0.59727639   0.00871656
9684.00   0.58472103   0.00811901
9686.00   0.57459342   0.00781913
9688.00   0.55964875   0.00773907
9690.00   0.55684796   0.00770037
9692.00   0.56789297   0.00781285
9694.00   0.57386774   0.00792181
9696.00   0.57342488   0.00801243
9698.00   0.56962320   0.00809874
9700.00   0.55746320   0.00822743
9702.00   0.53042391   0.00845343
9704.00   0.52948487   0.00850618
9706.00   0.55170649   0.00843024
9708.00   0.56730628   0.00834251
9710.00   0.57887787   0.00817461
9712.00   0.58690822   0.00804600
9714.00   0.58856568   0.00818734
9716.00   0.58475935   0.00855592
9718.00   0.58223706   0.00866215
9720.00   0.57372552   0.00847710
9722.00   0.57523853   0.00860412
9724.00   0.59148845   0.00906910
9726.00   0.60259935   0.00956469
9728.00   0.59678289   0.00991848
9730.00   0.58127767   0.01022410
9732.00   0.56692612   0.01025473
9734.00   0.53489023   0.00993699
9736.00   0.53423896   0.00975294
9738.00   0.57300493   0.00976030
9740.00   0.59815025   0.00965344
9742.00   0.58558688   0.00913135
9744.00   0.55750781   0.00841022
9746.00   0.55181208   0.00821471
9748.00   0.55731788   0.00844786
9750.00   0.56324419   0.00861321
9752.00   0.57848316   0.00898682
9754.00   0.58623025   0.00917166
9756.00   0.58450124   0.00912632
9758.00   0.57811379   0.00891409
9760.00   0.56959629   0.00862263
9762.00   0.55577159   0.00816150
9764.00   0.54906708   0.00792583
9766.00   0.54609534   0.00781331
9768.00   0.54492453   0.00778202
9770.00   0.54854092   0.00786801
9772.00   0.55143768   0.00801091
9774.00   0.54738346   0.00818332
9776.00   0.53728041   0.00840411
9778.00   0.53897884   0.00857859
9780.00   0.55252632   0.00861809
9782.00   0.55974481   0.00891351
9784.00   0.56186748   0.00947827
9786.00   0.56155771   0.00999950
9788.00   0.55929831   0.01038308
9790.00   0.55477443   0.01072217
9792.00   0.55361995   0.01087958
9794.00   0.55726090   0.01095848
9796.00   0.55439833   0.01081492
9798.00   0.54456341   0.01026872
9800.00   0.53772956   0.00973820
9802.00   0.53597480   0.00953109
9804.00   0.53699660   0.00947313
9806.00   0.54322782   0.00929843
9808.00   0.56319147   0.00903839
9810.00   0.56509283   0.00896894
9812.00   0.54771158   0.00906559
9814.00   0.53778821   0.00914687
9816.00   0.54562408   0.00923531
9818.00   0.56078586   0.00930880
9820.00   0.56878638   0.00926239
9822.00   0.57937664   0.00910552
9824.00   0.57798955   0.00905256
9826.00   0.56109837   0.00910837
9828.00   0.55129713   0.00904605
9830.00   0.55318764   0.00881106
9832.00   0.55744046   0.00858978
9834.00   0.55584952   0.00856616
9836.00   0.55235898   0.00866840
9838.00   0.54760876   0.00885540
9840.00   0.53394568   0.00916779
9842.00   0.53400198   0.00948289
9844.00   0.55702123   0.01000577
9846.00   0.57481426   0.01031091
9848.00   0.56090218   0.01002515
9850.00   0.52593535   0.00930514
9852.00   0.52669299   0.00908330
9854.00   0.56429571   0.00921878
9856.00   0.57293326   0.00919299
9858.00   0.55490687   0.00903778
9860.00   0.53943965   0.00896367
9862.00   0.54155532   0.00906437
9864.00   0.55154574   0.00928949
9866.00   0.55911097   0.00973665
9868.00   0.57447147   0.01059023
9870.00   0.57694042   0.01098027
9872.00   0.56826445   0.01117795
9874.00   0.55664769   0.01118335
9876.00   0.54213122   0.01088430
9878.00   0.52745181   0.01043678
9880.00   0.52713057   0.01033021
9882.00   0.54139292   0.01048326
9884.00   0.54751194   0.01035896
9886.00   0.55296856   0.00992481
9888.00   0.55668250   0.00977461
9890.00   0.55799741   0.00995120
9892.00   0.55418685   0.01023599
9894.00   0.54515502   0.01049970
9896.00   0.52818576   0.01083803
9898.00   0.52583531   0.01086092
9900.00   0.53670222   0.01056775
9902.00   0.54368925   0.01038707
9904.00   0.54581377   0.01009105
9906.00   0.54503462   0.00994433
9908.00   0.54491419   0.01036776
9910.00   0.54497129   0.01118999
9912.00   0.54512626   0.01156255
9914.00   0.54929787   0.01185889
9916.00   0.54472122   0.01188043
9918.00   0.53008440   0.01153813
9920.00   0.51438376   0.01112650
9922.00   0.50299695   0.01075812
9924.00   0.49386728   0.01039363
9926.00   0.48875666   0.01040237
9928.00   0.48608123   0.01095161
9930.00   0.48942065   0.01101608
9932.00   0.49944094   0.01054657
9934.00   0.50947773   0.01048985
9936.00   0.52244821   0.01117402
9938.00   0.53514305   0.01217534
9940.00   0.53293315   0.01298391
9942.00   0.51339713   0.01389905
9944.00   0.50431027   0.01443916
9946.00   0.49682818   0.01454617
9948.00   0.49365903   0.01492129
9950.00   0.49067584   0.01587272
9952.00   0.48951171   0.01682514
9954.00   0.50239322   0.01686188
9956.00   0.53692520   0.01617743
9958.00   0.53921363   0.01558670
9960.00   0.51645403   0.01461244
9962.00   0.49664967   0.01382980
9964.00   0.47497638   0.01330887
9966.00   0.45842558   0.01290817
9968.00   0.45905820   0.01248839
9970.00   0.47511923   0.01212639
9972.00   0.48200011   0.01193775
9974.00   0.49353921   0.01206089
9976.00   0.48962134   0.01194667
9978.00   0.46608430   0.01157525
9980.00   0.44964375   0.01128628
9982.00   0.45613159   0.01125170
9984.00   0.47460830   0.01142745
9986.00   0.47383429   0.01171127
9988.00   0.45329179   0.01236777
9990.00   0.45248456   0.01253298
9992.00   0.46402879   0.01243635
9994.00   0.47508223   0.01226034
9996.00   0.48537768   0.01191421
9998.00   0.49567577   0.01154464
10000.00   0.50462432   0.01168267
10002.00   0.50659333   0.01180454
10004.00   0.52888593   0.01294172
10006.00   0.58373985   0.01527103
10008.00   0.61242753   0.01677332
10010.00   0.60292989   0.01738842
10012.00   0.57469460   0.01749590
10014.00   0.54678860   0.01726099
10016.00   0.50259520   0.01643323
10018.00   0.48919815   0.01591270
10020.00   0.49699934   0.01533960
10022.00   0.51109025   0.01496282
10024.00   0.54078230   0.01477853
10026.00   0.56361526   0.01473188
10028.00   0.55618191   0.01496331
10030.00   0.52414858   0.01562550
10032.00   0.52376729   0.01549477
10034.00   0.54053169   0.01454265
10036.00   0.56316710   0.01400200
10038.00   0.59955686   0.01384370
10040.00   0.62717775   0.01379342
10042.00   0.63327742   0.01380715
10044.00   0.62554196   0.01394616
10046.00   0.62237531   0.01399703
10048.00   0.61907119   0.01405906
10050.00   0.61047491   0.01404125
10052.00   0.59031996   0.01381967
10054.00   0.57619637   0.01375170
10056.00   0.57658547   0.01404489
10058.00   0.58312824   0.01450420
10060.00   0.58749419   0.01479518
10062.00   0.59849504   0.01516610
10064.00   0.60177225   0.01522246
10066.00   0.59718677   0.01493299
10068.00   0.59331578   0.01469078
10070.00   0.59351560   0.01440497
10072.00   0.59949234   0.01429269
10074.00   0.61364889   0.01507733
10076.00   0.64166677   0.01682984
10078.00   0.64949647   0.01755945
10080.00   0.64658844   0.01783313
10082.00   0.63554716   0.01798550
10084.00   0.61473617   0.01819613
10086.00   0.59179202   0.01822606
10088.00   0.57116321   0.01759685
10090.00   0.54662204   0.01621110
10092.00   0.54332218   0.01549412
10094.00   0.56805849   0.01477981
10096.00   0.57422438   0.01488572
10098.00   0.56355473   0.01624661
10100.00   0.55113736   0.01732454
10102.00   0.53896801   0.01727254
10104.00   0.52322784   0.01662667
10106.00   0.53249031   0.01627951
10108.00   0.58046067   0.01573267
10110.00   0.59127012   0.01557100
10112.00   0.56775284   0.01575066
10114.00   0.54824436   0.01605955
10116.00   0.54976711   0.01648764
10118.00   0.56043094   0.01707111
10120.00   0.56497338   0.01765245
10122.00   0.57848582   0.01858785
10124.00   0.56661162   0.01875974
10126.00   0.52416477   0.01834047
10128.00   0.49323976   0.01777861
10130.00   0.47888207   0.01694557
10132.00   0.47577940   0.01610555
10134.00   0.49186361   0.01616123
10136.00   0.54513812   0.01691938
10138.00   0.54258332   0.01727605
10140.00   0.48504001   0.01773881
10142.00   0.45335186   0.01793665
10144.00   0.45663683   0.01752586
10146.00   0.47389896   0.01696827
10148.00   0.48984249   0.01690044
10150.00   0.51949200   0.01706479
10152.00   0.52056268   0.01717656
10154.00   0.48906948   0.01738285
10156.00   0.47585577   0.01753613
10158.00   0.48289150   0.01750283
10160.00   0.50123857   0.01761689
10162.00   0.52520759   0.01813938
10164.00   0.55909142   0.01892492
10166.00   0.56944379   0.01965626
10168.00   0.56125373   0.02062618
10170.00   0.55335999   0.02121424
10172.00   0.54074860   0.02148217
10174.00   0.53236970   0.02167212
10176.00   0.53119466   0.02194743
10178.00   0.53461576   0.02216918
10180.00   0.53444564   0.02197746
10182.00   0.53658718   0.02130126
10184.00   0.52823184   0.02081354
10186.00   0.51061770   0.01989766
10188.00   0.49404654   0.01970594
10190.00   0.47480838   0.02101715
10192.00   0.45836474   0.02275141
10194.00   0.46136241   0.02284773
10196.00   0.48626646   0.02146530
10198.00   0.49302208   0.02146089
10200.00   0.49018636   0.02175207
10202.00   0.48939648   0.02286060
10204.00   0.49386784   0.02573501
10206.00   0.49271828   0.02838145
10208.00   0.47433853   0.02835566
10210.00   0.43545733   0.02637328
10212.00   0.43764733   0.02509704
10214.00   0.47643429   0.02282120
10216.00   0.50538191   0.02194112
10218.00   0.53260940   0.02330519
10220.00   0.54708093   0.02498661
10222.00   0.53931540   0.02542021
10224.00   0.51610684   0.02532917
10226.00   0.50658529   0.02490576
10228.00   0.50138381   0.02355386
10230.00   0.49750049   0.02284786
10232.00   0.49948461   0.02286211
10234.00   0.49569581   0.02288868
10236.00   0.48252310   0.02254171
10238.00   0.46471947   0.02201122
10240.00   0.46216384   0.02150053
10242.00   0.47204635   0.02079886
10244.00   0.48149848   0.02039360
10246.00   0.49779682   0.02017527
10248.00   0.50489399   0.02002387
10250.00   0.50296451   0.01990539
10252.00   0.49039699   0.01988366
10254.00   0.45191178   0.02000647
10256.00   0.36591923   0.02023023
10258.00   0.33758867   0.02053241
10260.00   0.33678678   0.02098305
10262.00   0.35862727   0.02137615
10264.00   0.42377570   0.02181460
10266.00   0.49636665   0.02224127
10268.00   0.50362492   0.02228548
10270.00   0.46005006   0.02192302
10272.00   0.43855569   0.02185636
10274.00   0.39734627   0.02076776
10276.00   0.39398253   0.02202961
10278.00   0.44312149   0.02587304
10280.00   0.49967031   0.02961043
10282.00   0.52834085   0.03228005
10284.00   0.54899861   0.03477215
10286.00   0.52571137   0.03485151
10288.00   0.43655834   0.03199776
10290.00   0.38864800   0.03040066
10292.00   0.36452746   0.02945157
10294.00   0.35820083   0.02864381
10296.00   0.37831238   0.02797951
10298.00   0.42210460   0.02752142
10300.00   0.42445210   0.02669025
10302.00   0.38977683   0.02530930
10304.00   0.37631552   0.02452179
10306.00   0.37385806   0.02418717
10308.00   0.37533966   0.02404123
10310.00   0.37778069   0.02413728
10312.00   0.38490054   0.02436323
10314.00   0.39509855   0.02420537
10316.00   0.40859821   0.02372928
10318.00   0.42346603   0.02345217
10320.00   0.45214657   0.02319094
10322.00   0.46085514   0.02303693
10324.00   0.43865640   0.02294476
10326.00   0.40657182   0.02293993
10328.00   0.39169867   0.02314542
10330.00   0.37911297   0.02356669
10332.00   0.38841505   0.02383060
10334.00   0.42309593   0.02413090
10336.00   0.45361254   0.02425704
10338.00   0.47084406   0.02340046
10340.00   0.50498696   0.02332816
10342.00   0.58727136   0.02606944
10344.00   0.70924643   0.03050548
10346.00   0.74886182   0.03316171
10348.00   0.74513650   0.03640869
10350.00   0.70619538   0.03704586
10352.00   0.58447684   0.03487369
10354.00   0.48710902   0.03204705
10356.00   0.49242306   0.03003539
10358.00   0.55236752   0.02821333
10360.00   0.56279646   0.02693862
10362.00   0.56913167   0.02588677
10364.00   0.54813802   0.02601363
10366.00   0.46956444   0.02772858
10368.00   0.40926237   0.02921865
10370.00   0.40691899   0.03007633
10372.00   0.43130609   0.03053211
10374.00   0.44524176   0.03000540
10376.00   0.47593415   0.02796991
10378.00   0.47958422   0.02680902
10380.00   0.45243208   0.02559692
10382.00   0.43950455   0.02518485
10384.00   0.45114402   0.02600575
10386.00   0.47338317   0.02723443
10388.00   0.48168044   0.02765807
10390.00   0.48053992   0.02778504
10392.00   0.47131315   0.02756619
10394.00   0.44653776   0.02665073
10396.00   0.42941678   0.02611349
10398.00   0.41577667   0.02602904
10400.00   0.41376330   0.02606546
10402.00   0.42827645   0.02590429
10404.00   0.45500039   0.02560188
10406.00   0.47436677   0.02572516
10408.00   0.49053879   0.02612231
10410.00   0.51190338   0.02667475
10412.00   0.55399902   0.02739758
10414.00   0.58266151   0.02827377
10416.00   0.55391905   0.02947021
10418.00   0.48110694   0.03095975
10420.00   0.43860279   0.03117679
10422.00   0.38925448   0.03043359
10424.00   0.37213440   0.02953281
10426.00   0.38555621   0.02768716
10428.00   0.41833030   0.02622479
10430.00   0.46980375   0.02631089
10432.00   0.53157094   0.02723181
10434.00   0.55045336   0.02711090
10436.00   0.54881257   0.02618852
10438.00   0.51803331   0.02604596
10440.00   0.42270577   0.02622309
10442.00   0.36760804   0.02670577
10444.00   0.38231403   0.02787811
10446.00   0.42507388   0.02905885
10448.00   0.45513201   0.02897059
10450.00   0.50301410   0.02777545
10452.00   0.51764062   0.02732272
10454.00   0.49611869   0.02697025
10456.00   0.49243683   0.02692215
10458.00   0.51730850   0.02731921
10460.00   0.54087684   0.02790610
10462.00   0.53591606   0.02844481
10464.00   0.51227258   0.02915154
10466.00   0.50487591   0.02948297
10468.00   0.50754474   0.02962244
10470.00   0.50373502   0.02954777
10472.00   0.49489722   0.02920209
10474.00   0.47839993   0.02875759
10476.00   0.45549892   0.02839698
10478.00   0.42540035   0.02802480
10480.00   0.42904393   0.02774627
10482.00   0.48282324   0.02755462
10484.00   0.49093774   0.02738690
10486.00   0.44904511   0.02719102
10488.00   0.40931137   0.02706284
10490.00   0.39660913   0.02696479
10492.00   0.39902899   0.02693951
10494.00   0.42866100   0.02741034
10496.00   0.51449174   0.02846921
10498.00   0.53820542   0.02912188
10500.00   0.51586869   0.02982113
10502.00   0.49919118   0.03024465
10504.00   0.49257196   0.03009532
10506.00   0.49409746   0.02973781
10508.00   0.50962494   0.02982651
10510.00   0.54743418   0.03020308
10512.00   0.53930977   0.03027061
10514.00   0.48123154   0.03012647
10516.00   0.44955508   0.03005730
10518.00   0.44932251   0.02999876
10520.00   0.46140103   0.02999411
10522.00   0.47147983   0.03022947
10524.00   0.48783027   0.03073617
10526.00   0.50409819   0.03097503
10528.00   0.52979615   0.03113807
10530.00   0.54053724   0.03114564
10532.00   0.53710270   0.03095223
10534.00   0.52973700   0.03079286
10536.00   0.52099717   0.03079403
10538.00   0.50692648   0.03082874
10540.00   0.50286198   0.03097653
10542.00   0.50745785   0.03135347
10544.00   0.50857647   0.03153113
10546.00   0.50953744   0.03153033
10548.00   0.51227853   0.03150381
10550.00   0.51540133   0.03143274
10552.00   0.51621287   0.03125734
10554.00   0.49750884   0.03112289
10556.00   0.44997233   0.03095775
10558.00   0.42615668   0.03086677
10560.00   0.41012105   0.03072573
10562.00   0.40600708   0.03075510
10564.00   0.42093720   0.03107889
10566.00   0.44807822   0.03164551
10568.00   0.46601780   0.03219081
10570.00   0.48678918   0.03282653
10572.00   0.49401118   0.03322795
10574.00   0.49479795   0.03370083
10576.00   0.48281747   0.03370727
10578.00   0.44892746   0.03295520
10580.00   0.41202024   0.03197852
10582.00   0.39845237   0.03138427
10584.00   0.39540140   0.03075130
10586.00   0.40299690   0.03060293
10588.00   0.43990706   0.03101237
10590.00   0.45082180   0.03131663
10592.00   0.42490262   0.03160736
10594.00   0.39665456   0.03187475
10596.00   0.39584841   0.03191591
10598.00   0.40739480   0.03178368
10600.00   0.40780017   0.03137835
10602.00   0.39507142   0.02994877
10604.00   0.40251268   0.02989761
10606.00   0.43419345   0.03170193
10608.00   0.46415900   0.03334235
10610.00   0.47279991   0.03355343
10612.00   0.46861750   0.03299892
10614.00   0.45144002   0.03216652
10616.00   0.39333631   0.02997964
10618.00   0.38612610   0.02920095
10620.00   0.43387622   0.02991669
10622.00   0.46943922   0.03049140
10624.00   0.46668780   0.03026693
10626.00   0.44550379   0.02972387
10628.00   0.42355971   0.02933306
10630.00   0.37550631   0.02878375
10632.00   0.36753117   0.02853861
10634.00   0.39384228   0.02858926
10636.00   0.41731898   0.02861155
10638.00   0.43280487   0.02854798
10640.00   0.44310251   0.02843763
10642.00   0.43809102   0.02822333
10644.00   0.40861736   0.02780417
10646.00   0.41173026   0.02767543
10648.00   0.44425514   0.02784920
10650.00   0.46349101   0.02785228
10652.00   0.47173430   0.02768980
10654.00   0.47051632   0.02740673
10656.00   0.45067537   0.02692163
10658.00   0.40953603   0.02617086
10660.00   0.39753500   0.02578744
10662.00   0.40857993   0.02571382
10664.00   0.41077636   0.02552482
10666.00   0.40267323   0.02521996
10668.00   0.39788571   0.02496196
10670.00   0.40802954   0.02485149
10672.00   0.42869449   0.02482828
10674.00   0.43456143   0.02470800
10676.00   0.42795625   0.02450614
10678.00   0.42850961   0.02437984
10680.00   0.43650006   0.02434428
10682.00   0.44292468   0.02429400
10684.00   0.43910487   0.02383035
10686.00   0.43549274   0.02330920
10688.00   0.45228827   0.02462787
10690.00   0.49409308   0.02848083
10692.00   0.50550503   0.02912976
10694.00   0.49871500   0.02768316
10696.00   0.49027850   0.02605026
10698.00   0.47067364   0.02422396
10700.00   0.45572750   0.02235784
10702.00   0.47648343   0.02196017
10704.00   0.53160802   0.02309622
10706.00   0.55750334   0.02320046
10708.00   0.58590645   0.02265825
10710.00   0.58246118   0.02265118
10712.00   0.52794749   0.02374379
10714.00   0.46569744   0.02487110
10716.00   0.44513690   0.02452180
10718.00   0.44599037   0.02293539
10720.00   0.46926238   0.02214785
10722.00   0.53943950   0.02148482
10724.00   0.57853082   0.02109809
10726.00   0.59473807   0.02125653
10728.00   0.59656879   0.02142397
10730.00   0.58604908   0.02107871
10732.00   0.56378520   0.02042722
10734.00   0.54481980   0.01998806
10736.00   0.51678878   0.01913566
10738.00   0.50206508   0.01932827
10740.00   0.49652158   0.02103015
10742.00   0.49650010   0.02215474
10744.00   0.50856854   0.02167870
10746.00   0.52994771   0.02028195
10748.00   0.54333663   0.01980183
10750.00   0.56471583   0.02003517
10752.00   0.56566878   0.01963845
10754.00   0.53854969   0.01867366
10756.00   0.51833364   0.01777482
10758.00   0.52116251   0.01717123
10760.00   0.53509492   0.01677260
10762.00   0.54394603   0.01669381
10764.00   0.55758062   0.01715559
10766.00   0.55971733   0.01708954
10768.00   0.54892555   0.01666765
10770.00   0.54291379   0.01632134
10772.00   0.55241242   0.01613172
10774.00   0.56080201   0.01594461
10776.00   0.53707343   0.01554112
10778.00   0.48016067   0.01491024
10780.00   0.47265279   0.01514664
10782.00   0.50964454   0.01670272
10784.00   0.52468619   0.01690252
10786.00   0.52001965   0.01570936
10788.00   0.51360443   0.01431714
10790.00   0.51422930   0.01359519
10792.00   0.51842940   0.01312866
10794.00   0.50625679   0.01318719
10796.00   0.46159220   0.01419828
10798.00   0.45651391   0.01450964
10800.00   0.50406292   0.01429627
10802.00   0.53994060   0.01396689
10804.00   0.52196038   0.01371973
10806.00   0.47998035   0.01340792
10808.00   0.46946369   0.01303245
10810.00   0.47501411   0.01249289
10812.00   0.47571436   0.01214820
10814.00   0.47857533   0.01187087
10816.00   0.48714867   0.01170611
10818.00   0.50502050   0.01179923
10820.00   0.52819893   0.01202506
10822.00   0.54176611   0.01203079
10824.00   0.54968065   0.01185302
10826.00   0.55990300   0.01198021
10828.00   0.58112562   0.01247726
10830.00   0.58084550   0.01268201
10832.00   0.55032173   0.01260831
10834.00   0.50692457   0.01233102
10836.00   0.47285765   0.01164862
10838.00   0.43858612   0.01017539
10840.00   0.42186800   0.00970313
10842.00   0.41820683   0.01015035
10844.00   0.41998997   0.01038535
10846.00   0.44621879   0.01015958
10848.00   0.47264756   0.01017477
10850.00   0.45626782   0.01130379
10852.00   0.40701181   0.01311754
10854.00   0.40849595   0.01317967
10856.00   0.45607644   0.01173218
10858.00   0.47616632   0.01074812
10860.00   0.48238391   0.00961904
10862.00   0.47699970   0.00877208
10864.00   0.45695372   0.00895227
10866.00   0.45695372   0.00895227
