# File created by shivutils (I.Shivvers)
# wl(A)   flm    er(optional)
3458.00   1.36833239   0.40588304
3460.00   1.60834038   0.42182702
3462.00   1.89801288   0.42838520
3464.00   0.55137378   0.40480584
3466.00   0.28009734   0.41426194
3468.00   0.35466865   0.43255398
3470.00   -0.29404217   0.42553848
3472.00   0.30127281   0.42566612
3474.00   1.33406854   0.40987617
3476.00   0.56063390   0.41678295
3478.00   1.58487952   0.44184861
3480.00   0.50416702   0.45257023
3482.00   0.58359438   0.44034344
3484.00   1.16613150   0.44426802
3486.00   0.74524540   0.43673590
3488.00   0.89316893   0.43521926
3490.00   1.26699376   0.43686402
3492.00   2.21460319   0.44520211
3494.00   0.95334917   0.41693163
3496.00   -0.19770969   0.41036510
3498.00   0.28215244   0.42438641
3500.00   0.35079819   0.41933081
3502.00   0.69120586   0.40617591
3504.00   0.26835009   0.41656205
3506.00   0.64418864   0.41436830
3508.00   0.15876147   0.41126239
3510.00   0.78893101   0.42237744
3512.00   0.77341020   0.41607851
3514.00   0.05702152   0.41240042
3516.00   1.08504510   0.42324224
3518.00   0.57647502   0.42058831
3520.00   0.48697826   0.40610769
3522.00   0.51874882   0.42238843
3524.00   0.28732216   0.41846123
3526.00   0.92872429   0.42265114
3528.00   1.43989205   0.42248908
3530.00   0.83432877   0.43339375
3532.00   0.32920578   0.42365751
3534.00   0.94430822   0.43662542
3536.00   1.33498037   0.43736023
3538.00   0.56801963   0.42965215
3540.00   -0.16886957   0.43755710
3542.00   0.38610536   0.45454746
3544.00   1.38970995   0.46637750
3546.00   1.58551955   0.47416082
3548.00   1.07838953   0.46363202
3550.00   0.63738948   0.46359271
3552.00   1.10547328   0.44623575
3554.00   1.12971389   0.46414551
3556.00   0.26625490   0.44761992
3558.00   1.46375811   0.46427831
3560.00   0.70450157   0.43455634
3562.00   1.24731338   0.43992484
3564.00   1.27269995   0.42959425
3566.00   0.13657504   0.43307242
3568.00   -0.08420376   0.42602351
3570.00   0.99332935   0.44035089
3572.00   1.88684046   0.45017996
3574.00   1.63661563   0.43702391
3576.00   0.64211965   0.42298868
3578.00   1.83835089   0.43630478
3580.00   0.16058312   0.41572827
3582.00   0.61966515   0.40032479
3584.00   0.25869611   0.39321995
3586.00   0.92472327   0.37949872
3588.00   0.80374616   0.39866492
3590.00   1.25713193   0.39781019
3592.00   1.09127462   0.39716801
3594.00   1.31441975   0.39428174
3596.00   0.91858250   0.39230436
3598.00   1.09499896   0.37334305
3600.00   1.17571700   0.38499278
3602.00   0.91793549   0.37696517
3604.00   0.38816544   0.35652113
3606.00   0.88544184   0.35335177
3608.00   -0.05915712   0.36345497
3610.00   0.91059977   0.36411905
3612.00   0.76022267   0.37801981
3614.00   0.08191346   0.38939109
3616.00   0.96559244   0.38778597
3618.00   0.60891873   0.36574319
3620.00   1.12036812   0.37384227
3622.00   2.08478546   0.38357499
3624.00   0.66399163   0.37222099
3626.00   0.68975526   0.36476797
3628.00   0.00515762   0.37000334
3630.00   0.98379135   0.37839738
3632.00   1.49936152   0.38281649
3634.00   0.90796739   0.36555743
3636.00   1.27520609   0.36627904
3638.00   0.65642953   0.37065837
3640.00   1.12550175   0.37267932
3642.00   0.44801864   0.37223813
3644.00   0.99283946   0.38878265
3646.00   0.75120944   0.39465895
3648.00   0.52434808   0.50588751
3650.00   2.05049062   0.59815687
3652.00   0.74113721   0.55193013
3654.00   0.41830459   0.49228296
3656.00   0.71409941   0.45211214
3658.00   1.44573808   0.39052108
3660.00   0.21165103   0.38078487
3662.00   1.10582995   0.44051433
3664.00   0.45702568   0.41955262
3666.00   0.02948742   0.35979471
3668.00   1.49093533   0.33252230
3670.00   0.94417971   0.32344359
3672.00   0.48252523   0.31272101
3674.00   1.14646077   0.31717998
3676.00   0.91801888   0.30668941
3678.00   0.69596416   0.30586049
3680.00   0.88415104   0.30553788
3682.00   0.65821755   0.31373280
3684.00   0.76289487   0.29835311
3686.00   1.08381712   0.29782510
3688.00   1.37547326   0.30176035
3690.00   1.07122469   0.30044597
3692.00   1.56533253   0.30878979
3694.00   1.84704947   0.31226006
3696.00   0.09183113   0.29345906
3698.00   0.93390715   0.30279723
3700.00   0.42075479   0.30101570
3702.00   0.96526980   0.29652005
3704.00   0.81681395   0.29170245
3706.00   0.66806543   0.28918487
3708.00   0.85582763   0.29091510
3710.00   0.60056210   0.28405368
3712.00   0.99226642   0.28919873
3714.00   0.36372915   0.27718472
3716.00   1.00396776   0.28239399
3718.00   1.52699244   0.28880465
3720.00   0.52536494   0.27189973
3722.00   1.22348678   0.27737710
3724.00   1.30548191   0.28650132
3726.00   1.34544921   0.28497174
3728.00   0.50857776   0.27586257
3730.00   1.15944600   0.27468929
3732.00   0.92798078   0.27425879
3734.00   0.66616333   0.26704711
3736.00   1.12735689   0.26929948
3738.00   1.01400948   0.27295926
3740.00   1.29033506   0.27937379
3742.00   0.86379111   0.26623648
3744.00   0.78190023   0.26113462
3746.00   0.45238385   0.24940056
3748.00   0.94113451   0.26083899
3750.00   0.86830860   0.26150852
3752.00   1.00442874   0.27322683
3754.00   0.81347412   0.27038950
3756.00   0.94910514   0.26025480
3758.00   0.94491088   0.25108126
3760.00   1.74788475   0.26011887
3762.00   0.82569414   0.24845900
3764.00   1.53721690   0.25099197
3766.00   1.07951629   0.23962122
3768.00   1.16410565   0.24311736
3770.00   0.82126409   0.24254943
3772.00   0.48677012   0.23841847
3774.00   1.00149560   0.24289316
3776.00   1.12067962   0.24480422
3778.00   1.30811632   0.24728076
3780.00   1.25342286   0.24783023
3782.00   1.22210681   0.24763119
3784.00   0.42928773   0.24166317
3786.00   0.59507775   0.22858602
3788.00   0.94198483   0.23229867
3790.00   1.54020870   0.24451065
3792.00   0.75755775   0.24111208
3794.00   0.92108130   0.23037776
3796.00   1.20476401   0.23373750
3798.00   1.14726448   0.23110919
3800.00   1.02845311   0.23209178
3802.00   1.19603145   0.23961544
3804.00   1.39988375   0.24249607
3806.00   1.73363197   0.24237484
3808.00   1.59730840   0.24175893
3810.00   1.03853774   0.22884388
3812.00   1.18508923   0.23774385
3814.00   0.58845669   0.22524521
3816.00   1.08903992   0.22670594
3818.00   1.21080148   0.22604260
3820.00   1.33876669   0.22569880
3822.00   0.34367579   0.21412003
3824.00   0.37150380   0.21064493
3826.00   1.29575932   0.23074448
3828.00   1.11996973   0.23760544
3830.00   1.33796513   0.23851542
3832.00   1.43282866   0.23301911
3834.00   1.34388936   0.23268998
3836.00   1.01503551   0.22916970
3838.00   0.92064172   0.23078501
3840.00   0.89902210   0.22316951
3842.00   0.74894500   0.22310643
3844.00   0.54656255   0.21794401
3846.00   0.82913721   0.21567667
3848.00   0.92851758   0.21938139
3850.00   1.05769086   0.20982546
3852.00   1.50763118   0.21792863
3854.00   1.53647435   0.21804124
3856.00   0.78854626   0.20570299
3858.00   1.42828393   0.20637080
3860.00   0.93972635   0.20200369
3862.00   1.33129680   0.20911883
3864.00   0.83614540   0.22648934
3866.00   1.11184812   0.20776644
3868.00   1.63190758   0.21657160
3870.00   1.58153319   0.21437146
3872.00   1.16367245   0.21763225
3874.00   0.84774423   0.22065865
3876.00   1.55519724   0.22653563
3878.00   1.38939822   0.21834660
3880.00   1.20496130   0.21677554
3882.00   1.54007924   0.21452203
3884.00   1.80998957   0.21545377
3886.00   1.30145037   0.21204747
3888.00   1.22568703   0.21105614
3890.00   1.23580325   0.21299739
3892.00   1.06560731   0.21028271
3894.00   1.69659400   0.21946619
3896.00   1.36336708   0.21261391
3898.00   1.11896014   0.20676382
3900.00   1.12645519   0.20947653
3902.00   1.00899756   0.20984267
3904.00   1.03028667   0.21759966
3906.00   1.20673251   0.24304922
3908.00   0.88503611   0.25216851
3910.00   0.93098354   0.25542709
3912.00   1.01363242   0.24919575
3914.00   1.08948720   0.24096711
3916.00   1.40864098   0.22675191
3918.00   1.55328369   0.21907878
3920.00   1.69931638   0.21662131
3922.00   1.50888896   0.21218923
3924.00   0.75358891   0.20195916
3926.00   1.20208275   0.20442307
3928.00   1.45620310   0.20731342
3930.00   1.51156533   0.20404558
3932.00   1.35399473   0.21180765
3934.00   1.81191254   0.21731365
3936.00   1.45662963   0.20945089
3938.00   1.40559995   0.19828510
3940.00   1.59587657   0.20499124
3942.00   1.47812450   0.21650353
3944.00   1.61677766   0.22266454
3946.00   1.68868089   0.22012655
3948.00   1.88212252   0.21643788
3950.00   1.81655109   0.21464570
3952.00   1.93924165   0.21136656
3954.00   1.65040636   0.20346273
3956.00   1.41787493   0.19421618
3958.00   1.57952392   0.19660938
3960.00   1.35778594   0.20615597
3962.00   1.33028042   0.21320531
3964.00   1.99035656   0.20711502
3966.00   1.72137427   0.19625875
3968.00   2.13335538   0.19866459
3970.00   1.59260249   0.19252579
3972.00   1.50783622   0.19691339
3974.00   1.43930066   0.19771621
3976.00   1.22324145   0.19546466
3978.00   1.23732305   0.19112827
3980.00   1.53515542   0.19751590
3982.00   1.26337445   0.19477016
3984.00   1.14683008   0.18848576
3986.00   1.34443402   0.18673883
3988.00   1.16228724   0.18929528
3990.00   0.79509765   0.18444470
3992.00   1.04345417   0.18105769
3994.00   1.08093953   0.18293858
3996.00   1.45699322   0.19692065
3998.00   1.60011673   0.20172578
4000.00   1.44147575   0.19370593
4002.00   1.80605531   0.19513020
4004.00   1.52840579   0.18960665
4006.00   1.46131217   0.19399823
4008.00   1.39421415   0.19693112
4010.00   1.30397987   0.19575077
4012.00   1.65341771   0.20081411
4014.00   1.61249900   0.19987591
4016.00   1.38010585   0.19811684
4018.00   1.33117843   0.21459222
4020.00   1.05171096   0.23379380
4022.00   0.99907690   0.24373057
4024.00   1.22355258   0.24116196
4026.00   1.63410211   0.22469942
4028.00   1.01853299   0.21052319
4030.00   1.26480627   0.20577674
4032.00   1.29043102   0.20529421
4034.00   1.34298587   0.20309357
4036.00   1.34560847   0.19784030
4038.00   1.32728720   0.19827868
4040.00   1.42573249   0.20065179
4042.00   1.50494540   0.21227586
4044.00   1.65168560   0.33217555
4046.00   1.35839760   0.42303702
4048.00   0.85408163   0.38871616
4050.00   1.40899014   0.27130058
4052.00   1.85523725   0.22422057
4054.00   1.74255085   0.22107802
4056.00   1.60573852   0.21687183
4058.00   2.08979797   0.20724139
4060.00   1.50725734   0.19706540
4062.00   1.21541095   0.19383697
4064.00   1.89254093   0.19808213
4066.00   1.44785118   0.19685233
4068.00   1.92457318   0.20155752
4070.00   1.57477546   0.19275494
4072.00   1.48606312   0.18794735
4074.00   2.17732763   0.19801675
4076.00   1.94711697   0.22792047
4078.00   1.87473226   0.24064346
4080.00   1.43351173   0.22682114
4082.00   1.72090876   0.21662110
4084.00   1.47870588   0.20902924
4086.00   1.52099884   0.20534709
4088.00   1.71933925   0.20236273
4090.00   2.10220790   0.18918705
4092.00   1.60902274   0.18655026
4094.00   1.68228257   0.18884608
4096.00   1.27841330   0.18194808
4098.00   1.17144299   0.18137988
4100.00   1.48734999   0.18036422
4102.00   0.75916517   0.17099667
4104.00   1.22968602   0.17202899
4106.00   1.38435328   0.17610380
4108.00   1.11437201   0.17676455
4110.00   1.32054019   0.17596772
4112.00   1.50569654   0.17635183
4114.00   1.12925518   0.17483427
4116.00   1.62215018   0.17974861
4118.00   1.55956113   0.17562109
4120.00   1.67692995   0.17902429
4122.00   1.17548835   0.17088912
4124.00   1.38508594   0.17211954
4126.00   1.70387387   0.17325805
4128.00   1.49426425   0.17005749
4130.00   1.83726835   0.17741424
4132.00   2.19330263   0.18722486
4134.00   2.17570567   0.18867785
4136.00   1.75029087   0.18169944
4138.00   1.71435642   0.18198664
4140.00   2.04119539   0.18893251
4142.00   2.03784752   0.18401562
4144.00   1.70802450   0.17468122
4146.00   1.64780986   0.17263854
4148.00   1.73340595   0.17310610
4150.00   1.35781956   0.17653942
4152.00   1.91052186   0.18792327
4154.00   1.44349515   0.18134418
4156.00   1.48956358   0.17466228
4158.00   1.51064610   0.16903070
4160.00   1.42700946   0.16814966
4162.00   1.47639525   0.17441881
4164.00   1.32638848   0.18530940
4166.00   1.73643446   0.18852459
4168.00   1.59840631   0.17561735
4170.00   1.35635793   0.16580981
4172.00   1.14303195   0.16177060
4174.00   1.13675570   0.16166687
4176.00   1.52398264   0.16381826
4178.00   1.80247045   0.16810158
4180.00   1.39518929   0.16333289
4182.00   1.41605687   0.16047324
4184.00   1.56675255   0.16231209
4186.00   1.84587312   0.16400754
4188.00   1.80266070   0.16508685
4190.00   1.35838890   0.16192573
4192.00   1.92321348   0.16676612
4194.00   1.65738332   0.16351663
4196.00   1.81185424   0.16218896
4198.00   1.71967566   0.15931045
4200.00   1.70147085   0.15978092
4202.00   1.79012477   0.15970531
4204.00   2.01235795   0.16402990
4206.00   1.82123125   0.16508290
4208.00   1.60916138   0.16083577
4210.00   1.67621601   0.16764714
4212.00   1.70269787   0.16790958
4214.00   1.76627171   0.16504128
4216.00   1.63991451   0.16405858
4218.00   1.74273229   0.16336720
4220.00   1.91840768   0.16656932
4222.00   2.01719856   0.16464779
4224.00   1.81854939   0.16236457
4226.00   1.84468305   0.15900292
4228.00   1.84803367   0.16087562
4230.00   1.52587938   0.16419020
4232.00   1.63026333   0.16706228
4234.00   1.72156262   0.16746522
4236.00   1.54198885   0.16724126
4238.00   2.03642058   0.17481339
4240.00   1.17150867   0.16349249
4242.00   1.49700475   0.15963019
4244.00   1.53979790   0.17262952
4246.00   1.71090317   0.18933135
4248.00   1.95683062   0.19194387
4250.00   1.89468777   0.17322226
4252.00   1.91742194   0.16382085
4254.00   1.98965216   0.16447803
4256.00   2.08391452   0.16642605
4258.00   1.80272758   0.16467005
4260.00   2.35097861   0.16888462
4262.00   2.21559858   0.16435355
4264.00   2.06525922   0.16479866
4266.00   2.26944566   0.16582596
4268.00   2.51319313   0.16830081
4270.00   2.35923386   0.16689540
4272.00   2.14560914   0.16526139
4274.00   1.82974374   0.16421708
4276.00   2.14052534   0.16891530
4278.00   1.96672499   0.16569482
4280.00   2.06706667   0.16609877
4282.00   1.60653555   0.16434541
4284.00   2.31610870   0.16772965
4286.00   2.38457847   0.16891100
4288.00   2.19998288   0.16740650
4290.00   2.40211463   0.16741949
4292.00   1.51512289   0.16113174
4294.00   1.83406794   0.16359235
4296.00   1.82448006   0.16403966
4298.00   1.60387635   0.16128908
4300.00   1.84907568   0.15981162
4302.00   1.75480652   0.16021799
4304.00   1.80243587   0.16443950
4306.00   1.90315747   0.16541672
4308.00   1.86976016   0.16592489
4310.00   1.66224122   0.16485915
4312.00   1.90072238   0.17726552
4314.00   2.07464504   0.18510409
4316.00   1.74930429   0.17804366
4318.00   1.76928258   0.17683543
4320.00   1.63684201   0.17755798
4322.00   2.03766680   0.18022691
4324.00   1.74952078   0.17734824
4326.00   1.54452610   0.17393452
4328.00   1.75664544   0.16824365
4330.00   1.97285295   0.16749118
4332.00   1.86385810   0.16569170
4334.00   2.00584769   0.16717261
4336.00   1.83168578   0.16772176
4338.00   1.98635852   0.17294602
4340.00   1.74210429   0.17318225
4342.00   2.09451485   0.17466515
4344.00   1.71914244   0.17787445
4346.00   1.59395885   0.18495393
4348.00   2.34655404   0.19462016
4350.00   2.21372652   0.18876292
4352.00   1.94526196   0.18267439
4354.00   2.29067421   0.21361314
4356.00   2.04200339   0.35343888
4358.00   1.78650463   0.43174201
4360.00   2.11000824   0.39169475
4362.00   1.98800409   0.29114863
4364.00   2.22347975   0.21805568
4366.00   2.31447840   0.19181488
4368.00   2.30153418   0.18742305
4370.00   2.06536770   0.18610524
4372.00   2.58431077   0.19260935
4374.00   2.76046610   0.19849576
4376.00   3.02558732   0.19671619
4378.00   2.49323106   0.18690841
4380.00   2.72186160   0.18505375
4382.00   2.08084941   0.17574519
4384.00   2.47944093   0.17743124
4386.00   2.24133039   0.17628659
4388.00   2.03421259   0.17485179
4390.00   2.51653218   0.17827281
4392.00   1.95837653   0.17442784
4394.00   1.79624343   0.17043383
4396.00   1.84282279   0.17180282
4398.00   1.96257389   0.17682517
4400.00   2.01291227   0.17754877
4402.00   1.83736658   0.17642377
4404.00   1.61601889   0.16762228
4406.00   2.13553619   0.17229044
4408.00   1.91493130   0.17152233
4410.00   1.83945119   0.16947463
4412.00   2.22849798   0.17274663
4414.00   2.30810165   0.17583179
4416.00   2.15671706   0.17880714
4418.00   2.20223379   0.17494078
4420.00   1.71635890   0.17191632
4422.00   1.63233280   0.16613266
4424.00   1.69411099   0.16696978
4426.00   1.89417672   0.16895154
4428.00   2.07241797   0.16988748
4430.00   2.09712505   0.17077786
4432.00   1.83007002   0.16775289
4434.00   1.80774546   0.16647671
4436.00   1.92429256   0.16802329
4438.00   2.35322666   0.17032933
4440.00   2.24382472   0.17054473
4442.00   1.90270269   0.16891478
4444.00   2.23557663   0.16895239
4446.00   1.99954104   0.16820441
4448.00   2.13051224   0.16915277
4450.00   2.46228170   0.17124084
4452.00   2.03592634   0.16623779
4454.00   2.18514490   0.16713730
4456.00   2.42301154   0.16878389
4458.00   2.15343618   0.16697317
4460.00   1.86595500   0.16364092
4462.00   1.78497791   0.16478249
4464.00   1.77013457   0.16512409
4466.00   1.63601255   0.16261208
4468.00   1.81076586   0.16448604
4470.00   2.01512408   0.16340019
4472.00   2.08485651   0.16421519
4474.00   1.93892050   0.16421935
4476.00   1.90316689   0.16346075
4478.00   2.02745295   0.16440599
4480.00   1.88554919   0.16380771
4482.00   2.40795064   0.16843624
4484.00   2.45008039   0.16885383
4486.00   2.16244864   0.16607048
4488.00   1.97865903   0.16660370
4490.00   2.00704885   0.16678180
4492.00   2.38337088   0.16902255
4494.00   2.15080881   0.16929485
4496.00   2.08296061   0.16712804
4498.00   2.12835407   0.16870086
4500.00   1.97471499   0.16666712
4502.00   2.13041687   0.16718784
4504.00   2.34476042   0.16900021
4506.00   2.85493112   0.17063934
4508.00   2.16495419   0.16558389
4510.00   2.03368378   0.16461046
4512.00   2.10431051   0.16340338
4514.00   2.16514921   0.16503724
4516.00   2.20468450   0.16510883
4518.00   2.19935036   0.16366106
4520.00   1.95302391   0.16162859
4522.00   2.11003852   0.16046189
4524.00   2.13010001   0.16098426
4526.00   2.15529823   0.16142802
4528.00   1.93125880   0.16110481
4530.00   2.23882651   0.16181761
4532.00   2.21441293   0.16149312
4534.00   2.60229874   0.16391963
4536.00   2.05236340   0.15943125
4538.00   2.28410101   0.15871345
4540.00   2.35182571   0.16157748
4542.00   2.17881131   0.16114688
4544.00   2.07744718   0.16029099
4546.00   2.34508538   0.16146277
4548.00   2.08143640   0.15963893
4550.00   2.20266867   0.15896954
4552.00   2.35628963   0.15882461
4554.00   2.38888597   0.15702245
4556.00   2.19085479   0.15489745
4558.00   1.96398115   0.15301529
4560.00   1.92456317   0.15148009
4562.00   2.21540308   0.15413162
4564.00   1.91122842   0.15139221
4566.00   2.03105140   0.15087312
4568.00   2.13873911   0.15232843
4570.00   2.09290147   0.15211363
4572.00   1.91389787   0.15266031
4574.00   2.04120183   0.15358573
4576.00   2.34648395   0.15372093
4578.00   2.24545550   0.15173140
4580.00   2.39950681   0.15093645
4582.00   2.22720242   0.14852895
4584.00   2.10756207   0.14809982
4586.00   2.30454493   0.14898658
4588.00   2.34798551   0.15030304
4590.00   2.28420210   0.15064949
4592.00   2.30492640   0.15203562
4594.00   2.44501734   0.15177007
4596.00   2.22253966   0.15078548
4598.00   2.22609544   0.15028986
4600.00   2.18074584   0.14862472
4602.00   2.43338680   0.14881496
4604.00   2.66942787   0.15101165
4606.00   2.79199505   0.15117557
4608.00   2.66339064   0.15272000
4610.00   2.47080183   0.15060169
4612.00   3.00946355   0.15315698
4614.00   2.40910482   0.14890148
4616.00   2.60162473   0.14761668
4618.00   2.14132094   0.14484867
4620.00   2.21424580   0.14671572
4622.00   2.47413182   0.14782828
4624.00   2.65652776   0.14907934
4626.00   2.13448954   0.14584929
4628.00   2.45105505   0.14626095
4630.00   2.60207081   0.14750540
4632.00   2.41094685   0.14673653
4634.00   2.51510406   0.14679849
4636.00   2.38812733   0.14586450
4638.00   2.34827065   0.14637566
4640.00   2.55933332   0.14785863
4642.00   2.58129096   0.14841990
4644.00   2.33669853   0.14551830
4646.00   2.59952378   0.14694576
4648.00   2.27113938   0.14585848
4650.00   2.64297032   0.14796486
4652.00   2.86379290   0.15050362
4654.00   2.79305243   0.15088131
4656.00   2.56411719   0.14981501
4658.00   2.59738040   0.15186805
4660.00   2.43137026   0.15261325
4662.00   2.82419705   0.15504603
4664.00   2.41347790   0.15572514
4666.00   2.20034671   0.15541261
4668.00   1.87543797   0.15596910
4670.00   2.32233405   0.15893087
4672.00   2.32671642   0.15993150
4674.00   2.43247700   0.15894298
4676.00   2.61088347   0.15551807
4678.00   2.57160830   0.15009515
4680.00   2.53831983   0.14870045
4682.00   2.33722901   0.14786181
4684.00   2.39607882   0.14879428
4686.00   2.18433166   0.14243436
4688.00   2.20852971   0.14624979
4690.00   2.05353451   0.14442220
4692.00   2.24193335   0.14483844
4694.00   2.57875896   0.14449255
4696.00   2.02316093   0.14041813
4698.00   2.22623205   0.13964523
4700.00   2.27655125   0.14043932
4702.00   2.48279881   0.14046344
4704.00   1.99053931   0.14059681
4706.00   2.19281793   0.14235701
4708.00   1.98489606   0.14194846
4710.00   1.76350403   0.14185199
4712.00   1.94721949   0.14138973
4714.00   2.02949691   0.14141858
4716.00   1.77374172   0.13874534
4718.00   1.97654653   0.13941875
4720.00   1.95668352   0.13833921
4722.00   1.93640065   0.13924226
4724.00   1.65498018   0.13686845
4726.00   1.82848477   0.14147544
4728.00   1.92290330   0.14694674
4730.00   1.94555712   0.15023562
4732.00   2.00241613   0.15199119
4734.00   1.97409260   0.15436591
4736.00   1.96087039   0.15559246
4738.00   1.79014134   0.15561518
4740.00   2.06038380   0.16024013
4742.00   1.80780900   0.16412383
4744.00   1.89775145   0.15989798
4746.00   1.48962080   0.14877017
4748.00   2.03466535   0.14548801
4750.00   1.73126686   0.14211555
4752.00   1.83926058   0.14394249
4754.00   1.58652782   0.14146374
4756.00   1.71503735   0.13774954
4758.00   2.12983918   0.13676852
4760.00   2.02117538   0.13326780
4762.00   1.73635733   0.13080905
4764.00   1.85937107   0.13038382
4766.00   1.89618409   0.12979990
4768.00   1.89597774   0.12898363
4770.00   1.68047404   0.12638621
4772.00   1.71835613   0.12764849
4774.00   1.80475056   0.12996873
4776.00   1.68776536   0.13118918
4778.00   1.81359458   0.13546760
4780.00   2.07727814   0.13848311
4782.00   1.85010493   0.13318947
4784.00   2.10468006   0.13382493
4786.00   1.95614696   0.13053750
4788.00   2.15670490   0.13183752
4790.00   2.19382548   0.13306765
4792.00   1.96410215   0.13258600
4794.00   2.14726067   0.13207473
4796.00   2.12648368   0.13159290
4798.00   2.55687118   0.13458598
4800.00   2.16567183   0.13117492
4802.00   2.14440131   0.13085566
4804.00   2.11180186   0.13034081
4806.00   2.29545951   0.13412414
4808.00   1.97369182   0.13161966
4810.00   2.28907108   0.13328858
4812.00   2.31705499   0.13463807
4814.00   2.39890575   0.13465932
4816.00   2.40362692   0.13403139
4818.00   2.43738842   0.13556306
4820.00   2.47213507   0.13557796
4822.00   2.48495269   0.13736524
4824.00   2.49504757   0.13746390
4826.00   2.56240892   0.13934061
4828.00   2.45736408   0.13996877
4830.00   2.48258686   0.13984062
4832.00   2.36244464   0.14042239
4834.00   2.29916382   0.14032538
4836.00   2.34365559   0.13902810
4838.00   2.63869333   0.14598796
4840.00   2.71171498   0.14582697
4842.00   2.69493580   0.14529899
4844.00   3.08212161   0.14563979
4846.00   2.76387835   0.14339256
4848.00   2.67894888   0.14581665
4850.00   2.57131577   0.14434533
4852.00   2.74928999   0.14534205
4854.00   2.90762591   0.14644262
4856.00   2.96250248   0.14433120
4858.00   3.11298966   0.14732893
4860.00   3.55291748   0.15201941
4862.00   3.69510484   0.15275964
4864.00   3.87815189   0.15529862
4866.00   4.23963737   0.15781035
4868.00   4.50433445   0.15942778
4870.00   5.21128607   0.16224706
4872.00   5.15902042   0.16288191
4874.00   5.75596476   0.16682613
4876.00   5.86228037   0.16842376
4878.00   6.26242018   0.17200649
4880.00   6.57615471   0.17427047
4882.00   7.07228518   0.17712414
4884.00   7.26620436   0.17669363
4886.00   7.17565250   0.17613071
4888.00   7.12461805   0.17485273
4890.00   6.49693060   0.16887626
4892.00   6.38325071   0.16963442
4894.00   6.65844011   0.17117557
4896.00   7.22848129   0.17463431
4898.00   7.84950209   0.17800654
4900.00   7.69064951   0.17734924
4902.00   7.13562059   0.17354135
4904.00   6.54058361   0.16923438
4906.00   5.81665134   0.16529882
4908.00   5.57329893   0.16300441
4910.00   4.69767714   0.15773009
4912.00   4.38288355   0.15406397
4914.00   4.60286999   0.15561165
4916.00   3.80101180   0.15095647
4918.00   3.86345434   0.15040891
4920.00   3.45957661   0.14579901
4922.00   3.65425730   0.14664747
4924.00   3.25895715   0.14312989
4926.00   2.85439229   0.14008415
4928.00   2.90299606   0.13970603
4930.00   2.89715433   0.13892479
4932.00   2.87675309   0.13808750
4934.00   3.07528806   0.14022626
4936.00   3.06943250   0.14016253
4938.00   3.27348757   0.14281851
4940.00   3.28474474   0.14188045
4942.00   3.04373026   0.14025041
4944.00   2.62529731   0.13768642
4946.00   3.23828626   0.14113843
4948.00   3.22889543   0.14060681
4950.00   3.42783856   0.14137022
4952.00   3.27585292   0.14134310
4954.00   3.20565939   0.14184247
4956.00   2.99735951   0.13849139
4958.00   3.02335978   0.13993853
4960.00   2.98180079   0.14163442
4962.00   3.01910043   0.14073044
4964.00   3.12466383   0.14153762
4966.00   2.73750472   0.13989487
4968.00   2.78791976   0.14046896
4970.00   2.60292029   0.14177553
4972.00   2.45732808   0.14443213
4974.00   2.46698356   0.14789431
4976.00   2.30901384   0.15314610
4978.00   2.15625548   0.15811276
4980.00   2.17616534   0.16520570
4982.00   1.80587447   0.16913921
4984.00   1.77900934   0.16911350
4986.00   1.97858059   0.16590014
4988.00   1.92773700   0.15949747
4990.00   2.07037187   0.15462910
4992.00   1.79345858   0.14776871
4994.00   1.91149485   0.14192736
4996.00   1.87501693   0.13787273
4998.00   1.44646466   0.13128653
5000.00   1.57504272   0.13062692
5002.00   1.66060627   0.12832302
5004.00   1.75689185   0.12696433
5006.00   1.73685873   0.12652020
5008.00   2.12676311   0.12973702
5010.00   1.95596159   0.12723626
5012.00   1.94451821   0.12474878
5014.00   1.83626628   0.12525798
5016.00   2.15101767   0.12698843
5018.00   1.89030039   0.12718898
5020.00   2.38200927   0.13139333
5022.00   2.37969398   0.13101895
5024.00   2.18990159   0.12940206
5026.00   2.71903467   0.13139895
5028.00   2.50176287   0.13202545
5030.00   2.81521773   0.13415386
5032.00   2.80295992   0.13506371
5034.00   2.84056377   0.13485825
5036.00   2.89603448   0.13391858
5038.00   3.07442427   0.13470401
5040.00   3.17704701   0.13493246
5042.00   3.16034341   0.13524860
5044.00   3.33817649   0.13685486
5046.00   3.13541675   0.13544397
5048.00   3.02057600   0.13384800
5050.00   3.27909279   0.13576615
5052.00   3.44230843   0.13715804
5054.00   3.40978956   0.13688183
5056.00   3.86713529   0.13978735
5058.00   3.70597792   0.13968779
5060.00   3.71001101   0.14018002
5062.00   3.34852338   0.14043525
5064.00   3.48310018   0.14316648
5066.00   3.05684519   0.14240499
5068.00   2.93583369   0.14390042
5070.00   2.92724848   0.14498617
5072.00   3.15909219   0.14435729
5074.00   2.77981400   0.14035597
5076.00   2.96615648   0.14073178
5078.00   2.98965788   0.14332910
5080.00   3.05197024   0.15179005
5082.00   2.43632102   0.15891963
5084.00   2.71188664   0.16674224
5086.00   2.96032023   0.17065041
5088.00   2.61942959   0.16339527
5090.00   2.22688913   0.15254715
5092.00   2.45798469   0.14448027
5094.00   2.27219963   0.13884467
5096.00   2.14703560   0.13693278
5098.00   2.10625982   0.13933812
5100.00   2.11916232   0.14024895
5102.00   1.85946465   0.13481402
5104.00   2.18008852   0.13278812
5106.00   1.90410924   0.12864956
5108.00   1.56028593   0.12449196
5110.00   1.91192377   0.12726107
5112.00   1.92512465   0.12727690
5114.00   2.07771683   0.12799676
5116.00   1.95214117   0.12909594
5118.00   1.89090943   0.12748848
5120.00   1.81471086   0.12578811
5122.00   1.89284229   0.12377597
5124.00   2.08198142   0.12686279
5126.00   2.29935861   0.12607995
5128.00   2.03655577   0.12424567
5130.00   1.85164595   0.12433083
5132.00   2.37826347   0.12835889
5134.00   2.09466362   0.12748387
5136.00   2.01517034   0.12546653
5138.00   2.12787366   0.12564015
5140.00   1.94843352   0.12608962
5142.00   2.16922140   0.12754460
5144.00   2.29108906   0.12992008
5146.00   2.16450548   0.13103561
5148.00   2.39054036   0.13489005
5150.00   2.26000357   0.13750014
5152.00   2.59930444   0.14372082
5154.00   2.47955799   0.14560775
5156.00   2.57932448   0.14378317
5158.00   2.41340327   0.14071305
5160.00   2.34709573   0.13699585
5162.00   2.42893434   0.13452515
5164.00   2.10507369   0.13096491
5166.00   2.37389970   0.13082555
5168.00   2.51583910   0.13250196
5170.00   2.68559289   0.13313857
5172.00   2.51720786   0.13086554
5174.00   2.66065264   0.13251805
5176.00   2.53072453   0.13158718
5178.00   2.57356071   0.13387801
5180.00   2.51848316   0.13307568
5182.00   2.53879690   0.13205485
5184.00   2.51034927   0.13346434
5186.00   2.62436438   0.13316086
5188.00   2.90264249   0.13790527
5190.00   2.88103294   0.13924319
5192.00   3.03767490   0.13928805
5194.00   3.30060697   0.14267904
5196.00   3.26132250   0.14269306
5198.00   3.13290453   0.14181702
5200.00   2.93487740   0.14120130
5202.00   3.18028116   0.14249761
5204.00   3.01876354   0.13927354
5206.00   3.32337642   0.14245516
5208.00   2.99645829   0.14155965
5210.00   3.13183594   0.14624447
5212.00   3.42532015   0.14728299
5214.00   3.34677911   0.14686391
5216.00   3.63978696   0.14911711
5218.00   3.39421868   0.14538652
5220.00   3.23578525   0.14606184
5222.00   3.12670112   0.14579843
5224.00   3.35721564   0.14667732
5226.00   3.09574008   0.14375582
5228.00   3.40056634   0.14655486
5230.00   3.29969263   0.14595605
5232.00   3.23049212   0.14660276
5234.00   3.43318820   0.14764082
5236.00   3.52426291   0.15010357
5238.00   3.64676499   0.15130617
5240.00   2.98684287   0.14604904
5242.00   3.10717225   0.14620188
5244.00   2.78202248   0.14433505
5246.00   3.23028874   0.14753845
5248.00   3.54629040   0.14907782
5250.00   3.61657476   0.15040252
5252.00   3.35897493   0.15037705
5254.00   3.23253870   0.14986488
5256.00   3.52299094   0.15554313
5258.00   3.29489970   0.15262979
5260.00   3.24868226   0.15148975
5262.00   3.17435217   0.15172167
5264.00   3.06756997   0.14979516
5266.00   3.64442801   0.15321249
5268.00   3.41717601   0.15144727
5270.00   3.46915984   0.15166281
5272.00   3.35525179   0.15154238
5274.00   3.60699844   0.15439206
5276.00   3.50417757   0.15539679
5278.00   3.39595270   0.15507789
5280.00   3.11176300   0.15280434
5282.00   3.43595934   0.15598489
5284.00   3.91310310   0.16126060
5286.00   3.73816895   0.15977983
5288.00   3.39069247   0.15681836
5290.00   3.60313797   0.15867372
5292.00   3.51873970   0.15775493
5294.00   3.79645681   0.16054039
5296.00   3.23888683   0.15804385
5298.00   4.26869965   0.16476193
5300.00   3.88828731   0.16135453
5302.00   3.49967670   0.15972400
5304.00   3.90875745   0.16324794
5306.00   3.91859746   0.16290027
5308.00   3.68091798   0.16126171
5310.00   3.66934490   0.16355157
5312.00   3.86791968   0.16539261
5314.00   3.43986988   0.16218574
5316.00   3.44994020   0.16187930
5318.00   2.96531892   0.15856837
5320.00   3.18245387   0.16206282
5322.00   3.21483326   0.16136131
5324.00   3.40531683   0.16359821
5326.00   3.19358301   0.16367854
5328.00   2.69268155   0.15943854
5330.00   2.80558109   0.16112038
5332.00   3.29020858   0.16464821
5334.00   3.03594470   0.16373155
5336.00   3.16935849   0.16547191
5338.00   2.86386299   0.16587614
5340.00   3.11326146   0.17086163
5342.00   2.96547413   0.17043801
5344.00   3.63761139   0.17439948
5346.00   3.32760620   0.17580904
5348.00   3.54953575   0.18113862
5350.00   3.62074614   0.18211253
5352.00   3.50804090   0.18031441
5354.00   3.47109532   0.18456206
5356.00   3.17353439   0.18409577
5358.00   3.35399389   0.18107250
5360.00   3.16661668   0.17708005
5362.00   3.38600159   0.17636272
5364.00   3.22255945   0.17478187
5366.00   3.64281487   0.17864050
5368.00   3.13378167   0.17305976
5370.00   2.78673553   0.17099720
5372.00   2.96237898   0.17497265
5374.00   2.76892352   0.17816375
5376.00   2.96794653   0.18181787
5378.00   3.25944352   0.18214026
5380.00   2.99383020   0.17954038
5382.00   2.84398913   0.17959084
5384.00   2.99137807   0.17929389
5386.00   3.12047958   0.18250076
5388.00   3.09412313   0.18331869
5390.00   3.19621730   0.18823022
5392.00   2.75844264   0.18843348
5394.00   3.00900865   0.18891054
5396.00   2.92719531   0.19083862
5398.00   3.70367861   0.19741787
5400.00   2.85376167   0.19069734
5402.00   2.69432163   0.19094759
5404.00   3.07369375   0.19506326
5406.00   2.46305871   0.19007194
5408.00   2.85482359   0.19527799
5410.00   2.99448061   0.19911776
5412.00   2.44904423   0.20112561
5414.00   2.81731009   0.20811886
5416.00   2.87770414   0.21343175
5418.00   2.70009851   0.21235141
5420.00   3.32980371   0.22056811
5422.00   2.35072422   0.21581988
5424.00   2.34527183   0.21485277
5426.00   2.48750615   0.21572891
5428.00   2.97712255   0.21961960
5430.00   2.02576780   0.21244910
5432.00   2.66569734   0.21634647
5434.00   2.52508068   0.21763998
5436.00   3.11813736   0.22143531
5438.00   2.97421503   0.22132324
5440.00   2.57018757   0.22191823
5442.00   2.73509049   0.22365880
5444.00   2.91108227   0.22464757
5446.00   3.66064978   0.23336743
5448.00   3.09902477   0.23189183
5450.00   3.10247540   0.07354696
5452.00   3.06188178   0.07362766
5454.00   2.86101151   0.08126603
5456.00   2.43646407   0.09451577
5458.00   2.34502459   0.10220309
5460.00   2.51800966   0.11136831
5462.00   2.63568878   0.11342935
5464.00   2.70313334   0.10587665
5466.00   2.76914477   0.09567916
5468.00   2.87910628   0.09179468
5470.00   3.03989553   0.09163941
5472.00   2.96134591   0.08601246
5474.00   2.61383104   0.07216761
5476.00   2.39559436   0.06538381
5478.00   2.24605012   0.06750153
5480.00   2.13457322   0.07110745
5482.00   2.05598259   0.07314134
5484.00   2.01291227   0.07521047
5486.00   1.99671531   0.07391804
5488.00   2.04800272   0.06848408
5490.00   2.04194975   0.06484360
5492.00   1.97566557   0.06043259
5494.00   1.94500828   0.05804808
5496.00   1.98308587   0.05967788
5498.00   2.06067467   0.06327604
5500.00   2.14955640   0.06490035
5502.00   2.31186700   0.06708276
5504.00   2.34585118   0.06598654
5506.00   2.26792049   0.05950296
5508.00   2.20611167   0.05635296
5510.00   2.15748096   0.05947739
5512.00   2.12903047   0.06413350
5514.00   2.16730809   0.06570823
5516.00   2.27469373   0.06645549
5518.00   2.32615685   0.06536641
5520.00   2.38278866   0.06005823
5522.00   2.37955189   0.05832425
5524.00   2.26411986   0.06178186
5526.00   2.16885829   0.06527092
5528.00   2.23137689   0.06505450
5530.00   2.40343547   0.06278482
5532.00   2.46307635   0.06103962
5534.00   2.43898201   0.05790548
5536.00   2.47716808   0.05658527
5538.00   2.57591653   0.05662149
5540.00   2.66625094   0.05780395
5542.00   2.71763468   0.06087944
5544.00   2.74716830   0.06492000
5546.00   2.74872375   0.06486621
5548.00   2.69886041   0.06019579
5550.00   2.68348289   0.05878582
5552.00   2.69917321   0.05942929
5554.00   2.69025898   0.05974113
5556.00   2.62254667   0.05899324
5558.00   2.53917193   0.05790528
5560.00   2.53358769   0.05726681
5562.00   2.59503698   0.05628689
5564.00   2.61889672   0.05703502
5566.00   2.68851066   0.05743773
5568.00   2.65468001   0.06148752
5570.00   2.45279455   0.07120650
5572.00   2.21534538   0.08011346
5574.00   2.11465502   0.08237816
5576.00   2.09550548   0.08076500
5578.00   2.04397440   0.07880992
5580.00   2.00254416   0.07444414
5582.00   1.95295572   0.06992204
5584.00   1.88890707   0.06395305
5586.00   1.83016694   0.05837551
5588.00   1.78775442   0.05578665
5590.00   1.75448239   0.05557577
5592.00   1.76677990   0.05498700
5594.00   1.87451959   0.05581565
5596.00   1.87671077   0.05537141
5598.00   1.78522480   0.05358508
5600.00   1.68116498   0.05202730
5602.00   1.58929896   0.05157683
5604.00   1.49803281   0.05169268
5606.00   1.45301223   0.05149769
5608.00   1.44984066   0.05127471
5610.00   1.44765055   0.05113779
5612.00   1.48402405   0.05115861
5614.00   1.48834014   0.05104972
5616.00   1.42634010   0.05043227
5618.00   1.34436285   0.04987578
5620.00   1.32723534   0.05076389
5622.00   1.36350048   0.05320215
5624.00   1.35648358   0.05406025
5626.00   1.31692386   0.05452147
5628.00   1.30087554   0.05407953
5630.00   1.32694972   0.05196495
5632.00   1.35239267   0.04963959
5634.00   1.32229376   0.04935427
5636.00   1.24499762   0.05052358
5638.00   1.23441756   0.05075868
5640.00   1.26412165   0.05046072
5642.00   1.30154359   0.05079925
5644.00   1.37340653   0.05202854
5646.00   1.42826259   0.05310080
5648.00   1.40939534   0.05328417
5650.00   1.34105039   0.05294667
5652.00   1.37431848   0.05276921
5654.00   1.49853408   0.05218642
5656.00   1.57956374   0.05227725
5658.00   1.66982067   0.05287621
5660.00   1.71478426   0.05374351
5662.00   1.66102493   0.05477959
5664.00   1.55924940   0.05603664
5666.00   1.58027244   0.05757078
5668.00   1.72100818   0.05922781
5670.00   1.77202797   0.06136512
5672.00   1.77022946   0.06423779
5674.00   1.78643668   0.06666678
5676.00   1.85298967   0.06803919
5678.00   1.92103386   0.06944369
5680.00   1.90229952   0.07251114
5682.00   1.78012621   0.07594201
5684.00   1.80392015   0.08193759
5686.00   1.99072874   0.09400511
5688.00   2.05896235   0.09798951
5690.00   1.95389545   0.09249705
5692.00   1.82928586   0.08365916
5694.00   1.84643722   0.07830539
5696.00   1.96002400   0.07368937
5698.00   1.94261122   0.06945223
5700.00   1.80697608   0.06581410
5702.00   1.74676549   0.06297302
5704.00   1.73986816   0.06071469
5706.00   1.76227117   0.05986597
5708.00   1.81741023   0.06166878
5710.00   1.90381956   0.06535073
5712.00   1.93119407   0.06580139
5714.00   1.96957445   0.06466291
5716.00   1.89153731   0.06256495
5718.00   1.63766837   0.05785661
5720.00   1.44806743   0.05385279
5722.00   1.42722535   0.05249388
5724.00   1.48707032   0.05254194
5726.00   1.49311125   0.05185303
5728.00   1.48303449   0.05107039
5730.00   1.50246036   0.05077235
5732.00   1.56665289   0.05066632
5734.00   1.59364390   0.05111364
5736.00   1.56688964   0.05252814
5738.00   1.51181436   0.05410952
5740.00   1.44945979   0.05465582
5742.00   1.35650730   0.05487233
5744.00   1.31066275   0.05377927
5746.00   1.29956198   0.05025549
5748.00   1.28691220   0.04825960
5750.00   1.28146935   0.04825743
5752.00   1.27104604   0.04887642
5754.00   1.22900307   0.04898276
5756.00   1.15594339   0.04898113
5758.00   1.17398930   0.05004787
5760.00   1.30576622   0.05183309
5762.00   1.35141122   0.05400310
5764.00   1.32263362   0.05705502
5766.00   1.28080070   0.05971342
5768.00   1.24825847   0.06161692
5770.00   1.21389139   0.06302130
5772.00   1.22607827   0.06242099
5774.00   1.29822421   0.05920814
5776.00   1.32928288   0.05694597
5778.00   1.32502377   0.05391705
5780.00   1.34146380   0.05217764
5782.00   1.40036678   0.05236767
5784.00   1.48108852   0.05416914
5786.00   1.55494416   0.05803266
5788.00   1.65692604   0.06567627
5790.00   1.69222522   0.06787203
5792.00   1.69479239   0.06740399
5794.00   1.64956450   0.06546793
5796.00   1.52640009   0.06086416
5798.00   1.38216615   0.05519849
5800.00   1.31162441   0.05251938
5802.00   1.29262018   0.05163534
5804.00   1.22638929   0.05199592
5806.00   1.10852528   0.05566180
5808.00   1.04779780   0.05676382
5810.00   1.03316164   0.05496078
5812.00   1.06311142   0.05260142
5814.00   1.16269565   0.05163995
5816.00   1.33371246   0.05125194
5818.00   1.39013803   0.05100287
5820.00   1.38677919   0.05036148
5822.00   1.34762120   0.05151382
5824.00   1.19867849   0.05491095
5826.00   1.11273146   0.05792259
5828.00   1.22388089   0.05937190
5830.00   1.44153726   0.06012976
5832.00   1.46195078   0.06127948
5834.00   1.29800713   0.06297469
5836.00   1.26926458   0.06340519
5838.00   1.33376992   0.06317231
5840.00   1.36350560   0.06207221
5842.00   1.31070685   0.05934602
5844.00   1.22779453   0.05588596
5846.00   1.19349790   0.05475501
5848.00   1.17379498   0.05548978
5850.00   1.18457758   0.05568668
5852.00   1.23469603   0.05607357
5854.00   1.28434241   0.05666146
5856.00   1.32776618   0.05697335
5858.00   1.37777293   0.05793584
5860.00   1.45011520   0.06104551
5862.00   1.54901373   0.06599052
5864.00   1.60383821   0.06887142
5866.00   1.62263811   0.07175175
5868.00   1.65031910   0.07261813
5870.00   1.70664716   0.07115657
5872.00   1.73315465   0.06878587
5874.00   1.65989637   0.06607492
5876.00   1.50904441   0.06239032
5878.00   1.51287222   0.06272405
5880.00   1.61623859   0.06205370
5882.00   1.74302959   0.07091849
5884.00   1.89304733   0.08519548
5886.00   2.10903406   0.10152588
5888.00   2.45286918   0.11970912
5890.00   2.86846662   0.13833037
5892.00   3.09534121   0.15281871
5894.00   3.35749102   0.17482902
5896.00   3.21521902   0.17415091
5898.00   2.42615557   0.15135200
5900.00   2.01303840   0.12648696
5902.00   2.34475493   0.10309961
5904.00   2.95561051   0.07839183
5906.00   3.14650321   0.06590818
5908.00   3.11797714   0.07397958
5910.00   3.19398212   0.07270592
5912.00   3.29849792   0.07050858
5914.00   3.36126375   0.06990534
5916.00   3.41354561   0.07259917
5918.00   3.39762712   0.07486735
5920.00   3.20640445   0.07192397
5922.00   2.84239769   0.06392416
5924.00   2.63074422   0.06178469
5926.00   2.40971494   0.06407692
5928.00   2.35426044   0.06540499
5930.00   2.47559547   0.06678679
5932.00   2.68682456   0.06773902
5934.00   2.96103287   0.06763490
5936.00   3.31796193   0.06678343
5938.00   3.52737832   0.06575131
5940.00   3.68397784   0.06324576
5942.00   3.73635817   0.06275674
5944.00   3.66810632   0.06369899
5946.00   3.55291629   0.06553715
5948.00   3.40553951   0.06872102
5950.00   3.22325802   0.07242982
5952.00   3.07397294   0.07331901
5954.00   2.90927434   0.07269640
5956.00   2.81215906   0.07067345
5958.00   2.78857756   0.06553288
5960.00   2.75294209   0.06128817
5962.00   2.70015860   0.05910929
5964.00   2.63082433   0.05801297
5966.00   2.51348352   0.05721810
5968.00   2.34014130   0.05744175
5970.00   2.20979595   0.05692607
5972.00   2.06382585   0.05596478
5974.00   1.98488569   0.05528685
5976.00   2.00687313   0.05502626
5978.00   2.04692507   0.05482535
5980.00   2.01314068   0.05417922
5982.00   1.93649065   0.05304310
5984.00   1.90243018   0.05366081
5986.00   1.91399550   0.05568388
5988.00   1.87379646   0.05773314
5990.00   1.75723267   0.06106413
5992.00   1.66220987   0.06308993
5994.00   1.66752839   0.06191469
5996.00   1.73257470   0.05847544
5998.00   1.70694852   0.05602615
6000.00   1.59266484   0.05272147
6002.00   1.55500591   0.05082369
6004.00   1.56228149   0.05024706
6006.00   1.58927143   0.05010607
6008.00   1.64385915   0.05032543
6010.00   1.71138763   0.05082640
6012.00   1.71698117   0.05052800
6014.00   1.68833339   0.04876396
6016.00   1.62598503   0.04946427
6018.00   1.42100585   0.05305610
6020.00   1.38147759   0.05472666
6022.00   1.64080000   0.05320392
6024.00   1.97397673   0.05077932
6026.00   2.04089761   0.05100735
6028.00   1.94138277   0.05336132
6030.00   1.87583244   0.05309350
6032.00   1.75048721   0.04964630
6034.00   1.65780234   0.04908760
6036.00   1.58766544   0.05322395
6038.00   1.54454660   0.05679978
6040.00   1.54705215   0.05528329
6042.00   1.59245121   0.04987234
6044.00   1.61954045   0.04856772
6046.00   1.66734815   0.05017605
6048.00   1.67642939   0.05067691
6050.00   1.63896048   0.05107257
6052.00   1.60096776   0.05076227
6054.00   1.58492744   0.04870415
6056.00   1.57890224   0.04536288
6058.00   1.59611285   0.04496447
6060.00   1.69696653   0.04695972
6062.00   1.66524661   0.04848276
6064.00   1.46655250   0.05156554
6066.00   1.34608471   0.05267439
6068.00   1.41377878   0.04987991
6070.00   1.55865145   0.04505148
6072.00   1.58069861   0.04366651
6074.00   1.51481116   0.04425039
6076.00   1.52068198   0.04543803
6078.00   1.59468102   0.04927789
6080.00   1.60849512   0.05072485
6082.00   1.52588511   0.04833608
6084.00   1.41429257   0.04496027
6086.00   1.35548675   0.04506822
6088.00   1.31633449   0.04738570
6090.00   1.29273903   0.04892117
6092.00   1.26978099   0.05195171
6094.00   1.29679465   0.05236728
6096.00   1.39225030   0.04893707
6098.00   1.50294542   0.04522428
6100.00   1.58728647   0.04517005
6102.00   1.66701710   0.04728538
6104.00   1.71149659   0.04873426
6106.00   1.70912576   0.05042793
6108.00   1.72989106   0.05236676
6110.00   1.75950027   0.05476527
6112.00   1.79839623   0.05698102
6114.00   1.86444318   0.05937491
6116.00   1.94255733   0.06156065
6118.00   1.92912674   0.05975283
6120.00   1.81193542   0.05179906
6122.00   1.75576222   0.04803146
6124.00   1.74052894   0.04642333
6126.00   1.69583678   0.04596662
6128.00   1.58431625   0.04668462
6130.00   1.45187569   0.04836177
6132.00   1.38678896   0.05005646
6134.00   1.33154929   0.05342245
6136.00   1.38489163   0.05284856
6138.00   1.59239423   0.04764709
6140.00   1.73398149   0.04430218
6142.00   1.78360927   0.04427250
6144.00   1.80103743   0.04538181
6146.00   1.83272326   0.04566484
6148.00   1.85754251   0.04585615
6150.00   1.88508964   0.04658433
6152.00   1.90494585   0.04759213
6154.00   1.93967605   0.04897457
6156.00   1.99927580   0.05129338
6158.00   2.05418134   0.05311082
6160.00   2.07952285   0.05342513
6162.00   2.08629584   0.05278888
6164.00   2.09572148   0.05113114
6166.00   2.07354283   0.04641774
6168.00   2.10723782   0.04474568
6170.00   2.20382047   0.04623918
6172.00   2.29678512   0.04774873
6174.00   2.35411906   0.04820480
6176.00   2.39696574   0.04824664
6178.00   2.45090318   0.04725705
6180.00   2.54776740   0.04340661
6182.00   2.54854345   0.04336433
6184.00   2.46321273   0.04707767
6186.00   2.37656403   0.04922633
6188.00   2.30367780   0.04884669
6190.00   2.23110342   0.04723352
6192.00   2.16158485   0.04531345
6194.00   2.09040236   0.04161017
6196.00   2.03389406   0.04053633
6198.00   1.98072839   0.04194288
6200.00   1.94940400   0.04269983
6202.00   1.95695269   0.04274405
6204.00   1.96696293   0.04254530
6206.00   1.92963517   0.04222958
6208.00   1.85545826   0.04166944
6210.00   1.82684457   0.04136983
6212.00   1.81822884   0.04126057
6214.00   1.82601571   0.04106171
6216.00   1.86594427   0.04085633
6218.00   1.90230572   0.04054434
6220.00   1.90246904   0.03944119
6222.00   1.88130212   0.03769972
6224.00   1.89562130   0.04044507
6226.00   1.97307587   0.04876114
6228.00   1.95986414   0.05121091
6230.00   1.83843851   0.05000231
6232.00   1.74773180   0.04792651
6234.00   1.75367832   0.04548479
6236.00   1.80605042   0.04245343
6238.00   1.82365286   0.04152391
6240.00   1.82534564   0.04298570
6242.00   1.84957027   0.04281510
6244.00   1.86488545   0.04169846
6246.00   1.92723489   0.04103315
6248.00   2.07173419   0.04117483
6250.00   2.24307442   0.04168648
6252.00   2.34315467   0.04215671
6254.00   2.40468550   0.04283480
6256.00   2.45822477   0.04327951
6258.00   2.48267770   0.04357893
6260.00   2.51248193   0.04389380
6262.00   2.53265381   0.04427892
6264.00   2.57003927   0.04459572
6266.00   2.67028666   0.04473900
6268.00   2.82904410   0.04480259
6270.00   2.90710926   0.04439379
6272.00   2.94180870   0.04301885
6274.00   2.95917630   0.04258199
6276.00   2.93754959   0.04321066
6278.00   2.91852212   0.04387801
6280.00   2.94696641   0.04402668
6282.00   2.99980450   0.04395518
6284.00   2.94444370   0.04363155
6286.00   2.77988029   0.04265696
6288.00   2.66105604   0.04235369
6290.00   2.51763105   0.04218611
6292.00   2.43288350   0.04272041
6294.00   2.46860719   0.04441662
6296.00   2.56148529   0.04666004
6298.00   2.54232836   0.04803238
6300.00   2.44412422   0.04946085
6302.00   2.37817097   0.04964701
6304.00   2.29463816   0.04832912
6306.00   2.24008965   0.04738617
6308.00   2.23089266   0.04752295
6310.00   2.23984075   0.04762168
6312.00   2.23185110   0.04597802
6314.00   2.23073697   0.04248178
6316.00   2.18594623   0.04050155
6318.00   2.07301903   0.03902499
6320.00   2.01339507   0.03825106
6322.00   2.02049994   0.03848143
6324.00   2.04199648   0.03912466
6326.00   2.02563071   0.03959855
6328.00   1.98432565   0.04016625
6330.00   2.03480768   0.04080733
6332.00   2.23838568   0.04051032
6334.00   2.27807307   0.04247877
6336.00   2.12669778   0.04826897
6338.00   1.99444187   0.05167234
6340.00   2.02488613   0.04837349
6342.00   2.13461065   0.04040173
6344.00   2.08882356   0.04270539
6346.00   1.84123302   0.05639476
6348.00   1.82021046   0.05766426
6350.00   2.00564599   0.04950202
6352.00   2.14750957   0.04156327
6354.00   2.16803384   0.03904605
6356.00   2.13241005   0.03911263
6358.00   2.08596253   0.03868837
6360.00   1.97402334   0.03941550
6362.00   1.94429457   0.03953084
6364.00   1.97722483   0.03904938
6366.00   2.00055337   0.03946431
6368.00   2.00754595   0.04183999
6370.00   2.01037693   0.04398161
6372.00   2.01255465   0.04278040
6374.00   2.01124787   0.03823877
6376.00   2.01448441   0.03689057
6378.00   2.03718758   0.03744766
6380.00   2.02619934   0.03809083
6382.00   1.95340896   0.03936590
6384.00   1.89458561   0.04043981
6386.00   1.93320918   0.04002707
6388.00   2.04377365   0.03836252
6390.00   2.03547001   0.04043218
6392.00   1.87662661   0.04783386
6394.00   1.87335300   0.04881220
6396.00   2.02819324   0.04329158
6398.00   2.18012381   0.03746128
6400.00   2.25626707   0.03615676
6402.00   2.29800820   0.03716358
6404.00   2.30033731   0.03695819
6406.00   2.24152946   0.03649436
6408.00   2.20045614   0.03678235
6410.00   2.14211631   0.03698175
6412.00   2.10174870   0.03856296
6414.00   2.08666611   0.04289586
6416.00   2.09146667   0.04740528
6418.00   2.12133241   0.04755816
6420.00   2.18767953   0.04415509
6422.00   2.23437500   0.04186976
6424.00   2.30099463   0.03836876
6426.00   2.32239270   0.03598472
6428.00   2.27193069   0.03551415
6430.00   2.20470881   0.03584697
6432.00   2.18573284   0.03567775
6434.00   2.18074632   0.03547144
6436.00   2.23378801   0.03579560
6438.00   2.37311959   0.03646970
6440.00   2.46837139   0.03744268
6442.00   2.52714086   0.03921245
6444.00   2.57055211   0.04055521
6446.00   2.60253859   0.04039000
6448.00   2.61872792   0.03916911
6450.00   2.66902661   0.03889320
6452.00   2.74848676   0.03907241
6454.00   2.81841373   0.03912912
6456.00   2.89525056   0.03854674
6458.00   2.95867372   0.03896510
6460.00   2.98703265   0.04144933
6462.00   2.99867201   0.04489944
6464.00   3.06548786   0.04697299
6466.00   3.18706775   0.04998429
6468.00   3.27687597   0.04935784
6470.00   3.37567043   0.04418291
6472.00   3.44105196   0.04001717
6474.00   3.45808554   0.03912961
6476.00   3.44561315   0.03966797
6478.00   3.42830515   0.03948018
6480.00   3.37770247   0.03937894
6482.00   3.37823081   0.03949304
6484.00   3.40639067   0.04004811
6486.00   3.45467520   0.04025597
6488.00   3.53116226   0.03981436
6490.00   3.62000918   0.03941586
6492.00   3.70443916   0.03994837
6494.00   3.80035424   0.04118387
6496.00   3.84328794   0.04178708
6498.00   3.84224582   0.04226232
6500.00   3.83421493   0.04243107
6502.00   3.79960489   0.04223236
6504.00   3.77154732   0.04187948
6506.00   3.77525353   0.04148992
6508.00   3.79801011   0.04099495
6510.00   3.84168768   0.04062726
6512.00   3.93744755   0.03978426
6514.00   3.98149538   0.04017901
6516.00   3.96396589   0.04157559
6518.00   3.97362351   0.04341928
6520.00   4.03870583   0.04603790
6522.00   4.14332151   0.04881322
6524.00   4.31067085   0.04909323
6526.00   4.58122587   0.04664282
6528.00   4.78191996   0.04598324
6530.00   4.91925526   0.04539304
6532.00   5.11898470   0.04600776
6534.00   5.38905811   0.04848357
6536.00   5.72754145   0.05152803
6538.00   6.17012930   0.05336088
6540.00   6.68992662   0.05508977
6542.00   7.34841728   0.05522015
6544.00   8.11626911   0.05100365
6546.00   9.02376461   0.05203599
6548.00   10.03929615   0.05989966
6550.00   11.22538567   0.06808899
6552.00   12.65613747   0.07288063
6554.00   14.29789543   0.07681041
6556.00   16.15712166   0.07748028
6558.00   18.36227608   0.07261153
6560.00   20.50341797   0.07220212
6562.00   22.67890549   0.07611959
6564.00   24.81700897   0.08053574
6566.00   26.84734344   0.08367417
6568.00   28.80650520   0.08654584
6570.00   30.77241898   0.08934977
6572.00   32.65134048   0.09263737
6574.00   34.66293335   0.09443460
6576.00   36.83410645   0.09451589
6578.00   38.94897842   0.09499978
6580.00   40.93535614   0.09648687
6582.00   42.84528351   0.09855443
6584.00   44.70434570   0.10144017
6586.00   46.66693878   0.10594101
6588.00   48.12298203   0.10843260
6590.00   49.50832748   0.10837740
6592.00   50.10663605   0.11066334
6594.00   49.66466904   0.11549503
6596.00   48.60475922   0.12220922
6598.00   47.34450531   0.13198121
6600.00   45.04262924   0.14734511
6602.00   45.25021744   0.14874020
6604.00   47.37099457   0.13879713
6606.00   49.83697891   0.12920013
6608.00   53.53041458   0.11180038
6610.00   56.83188248   0.10077471
6612.00   57.93602753   0.12102406
6614.00   57.64693832   0.15775967
6616.00   56.17972565   0.16757436
6618.00   52.87114334   0.16912723
6620.00   49.59830093   0.16131918
6622.00   45.61898422   0.13193615
6624.00   41.90145111   0.10072840
6626.00   39.15665436   0.09639305
6628.00   36.97857285   0.10929834
6630.00   34.55735397   0.10859549
6632.00   32.11699295   0.10395171
6634.00   29.85994339   0.09904874
6636.00   27.67443657   0.09084162
6638.00   25.71597099   0.08384540
6640.00   24.06600952   0.08043549
6642.00   22.63775444   0.07922307
6644.00   21.25925446   0.07823637
6646.00   20.02877617   0.08003171
6648.00   18.81522751   0.07769694
6650.00   17.64055443   0.07107522
6652.00   16.55574799   0.06555282
6654.00   15.57610035   0.06167724
6656.00   14.67296886   0.05932952
6658.00   13.81842613   0.05998812
6660.00   13.04732704   0.06439970
6662.00   12.22375870   0.06455521
6664.00   11.36088371   0.06258541
6666.00   10.55007744   0.05980148
6668.00   9.76333523   0.05482409
6670.00   9.04100513   0.04973455
6672.00   8.43754673   0.04749960
6674.00   7.93550444   0.04731734
6676.00   7.42074680   0.04700362
6678.00   6.92364645   0.04724138
6680.00   6.46943903   0.04825068
6682.00   6.03690052   0.05084119
6684.00   5.66634464   0.05267560
6686.00   5.38014793   0.05237995
6688.00   5.16491365   0.05091969
6690.00   5.00819635   0.05090736
6692.00   4.97378778   0.05273782
6694.00   4.86252546   0.05197028
6696.00   4.72274637   0.04896259
6698.00   4.57449293   0.04575745
6700.00   4.40662289   0.04249464
6702.00   4.23927069   0.03930717
6704.00   4.13935518   0.03828835
6706.00   4.09864950   0.03984438
6708.00   4.04383612   0.03976753
6710.00   4.00848007   0.03910156
6712.00   3.96017122   0.03854214
6714.00   3.89422274   0.03815419
6716.00   3.82119751   0.03779361
6718.00   3.75102615   0.03731327
6720.00   3.68069935   0.03661787
6722.00   3.60239387   0.03671861
6724.00   3.53666639   0.03798764
6726.00   3.42801428   0.03826305
6728.00   3.24814224   0.03729547
6730.00   3.07847309   0.03630709
6732.00   2.98488283   0.03617631
6734.00   2.93702936   0.03647406
6736.00   2.90145278   0.03763369
6738.00   2.93486857   0.04097809
6740.00   2.89057112   0.04145342
6742.00   2.77155042   0.03937184
6744.00   2.65210485   0.03683314
6746.00   2.56141090   0.03423830
6748.00   2.48222065   0.03151197
6750.00   2.41945219   0.03233243
6752.00   2.37475681   0.03794362
6754.00   2.33652616   0.03905602
6756.00   2.31010890   0.03799313
6758.00   2.29015326   0.03649318
6760.00   2.27836800   0.03443995
6762.00   2.27125931   0.03211115
6764.00   2.25994802   0.03142167
6766.00   2.25971365   0.03229247
6768.00   2.21749496   0.03223798
6770.00   2.11079168   0.03150628
6772.00   2.05397797   0.03162128
6774.00   2.07737374   0.03319468
6776.00   2.10865450   0.03473254
6778.00   2.06728506   0.03469648
6780.00   1.97947168   0.03363227
6782.00   1.91039705   0.03268420
6784.00   1.81683421   0.03092374
6786.00   1.76741529   0.02996157
6788.00   1.76661611   0.02993304
6790.00   1.77991056   0.03011856
6792.00   1.79073358   0.03007544
6794.00   1.80846822   0.03002677
6796.00   1.79180825   0.02994555
6798.00   1.73606360   0.02982484
6800.00   1.70281351   0.02971652
6802.00   1.66914678   0.02937241
6804.00   1.65692163   0.02940433
6806.00   1.68622530   0.03032915
6808.00   1.73808920   0.03160699
6810.00   1.75158274   0.03172086
6812.00   1.73610198   0.03014500
6814.00   1.73743725   0.03076938
6816.00   1.75246501   0.03342047
6818.00   1.75182068   0.03505453
6820.00   1.72121227   0.03512152
6822.00   1.68263495   0.03461127
6824.00   1.67408085   0.03443085
6826.00   1.69115531   0.03324229
6828.00   1.68175697   0.03572584
6830.00   1.63723242   0.04298014
6832.00   1.63166487   0.04561820
6834.00   1.67030370   0.04329436
6836.00   1.73160887   0.03936082
6838.00   1.80795920   0.03722609
6840.00   1.91458797   0.03547681
6842.00   1.94706368   0.03427437
6844.00   1.91425025   0.03420357
6846.00   1.89583743   0.03353659
6848.00   1.87433577   0.03192821
6850.00   1.85969675   0.03081549
6852.00   1.86152720   0.03134973
6854.00   1.87481189   0.03292205
6856.00   1.89581418   0.03417739
6858.00   1.95041800   0.03418182
6860.00   1.95761132   0.03745415
6862.00   1.92627454   0.04469049
6864.00   1.88654089   0.04908631
6866.00   1.84124124   0.04898037
6868.00   1.79237390   0.04662470
6870.00   1.77146244   0.04548956
6872.00   1.76549697   0.04437745
6874.00   1.77923727   0.04290844
6876.00   1.82997513   0.04095677
6878.00   1.86463881   0.03907246
6880.00   1.87745869   0.03712490
6882.00   1.87620008   0.03540872
6884.00   1.85998046   0.03483332
6886.00   1.82576549   0.03556060
6888.00   1.79152369   0.03518595
6890.00   1.73871505   0.03409988
6892.00   1.70612860   0.03334722
6894.00   1.69810963   0.03290594
6896.00   1.69771540   0.03267122
6898.00   1.69168568   0.03269397
6900.00   1.68638647   0.03301659
6902.00   1.67847908   0.03294561
6904.00   1.66634059   0.03253106
6906.00   1.65862882   0.03233812
6908.00   1.66695321   0.03234239
6910.00   1.65888286   0.03235303
6912.00   1.60432446   0.03219781
6914.00   1.52167094   0.03198248
6916.00   1.49511707   0.03226619
6918.00   1.49659574   0.03313364
6920.00   1.52092218   0.03361035
6922.00   1.60006845   0.03418120
6924.00   1.65206861   0.03426193
6926.00   1.64283764   0.03347414
6928.00   1.60586488   0.03220911
6930.00   1.59479368   0.03147359
6932.00   1.59420419   0.03080081
6934.00   1.58491993   0.03060775
6936.00   1.56632471   0.03071277
6938.00   1.55687129   0.03130343
6940.00   1.56393409   0.03270989
6942.00   1.57362318   0.03419605
6944.00   1.56656682   0.03477852
6946.00   1.54779637   0.03490431
6948.00   1.53484142   0.03462959
6950.00   1.51894259   0.03305595
6952.00   1.50980175   0.03281116
6954.00   1.50227273   0.03464730
6956.00   1.50549591   0.03618902
6958.00   1.53331780   0.03550786
6960.00   1.58273017   0.03330326
6962.00   1.60427654   0.03205783
6964.00   1.62349653   0.03068070
6966.00   1.61169243   0.03008551
6968.00   1.53949988   0.03050468
6970.00   1.49497187   0.03100166
6972.00   1.53642261   0.03057292
6974.00   1.62565768   0.02996518
6976.00   1.66430974   0.03279754
6978.00   1.68367839   0.04040712
6980.00   1.69643593   0.04179747
6982.00   1.68265021   0.03901335
6984.00   1.68688321   0.03608901
6986.00   1.72902155   0.03394762
6988.00   1.78568149   0.03206145
6990.00   1.81465709   0.03142405
6992.00   1.82028091   0.03234735
6994.00   1.85248232   0.03233833
6996.00   1.90544701   0.03170695
6998.00   1.95168746   0.03176831
7000.00   1.98967052   0.03301612
7002.00   2.02356863   0.03435006
7004.00   2.05508304   0.03453095
7006.00   2.08484268   0.03397465
7008.00   2.10399079   0.03361209
7010.00   2.10647678   0.03221966
7012.00   2.11966467   0.03262448
7014.00   2.14274812   0.03575367
7016.00   2.16942215   0.03826936
7018.00   2.19410443   0.03791085
7020.00   2.21857357   0.03572333
7022.00   2.26212668   0.03461280
7024.00   2.35086417   0.03335674
7026.00   2.37920523   0.03277376
7028.00   2.33775306   0.03301905
7030.00   2.30953908   0.03332809
7032.00   2.34576678   0.03337966
7034.00   2.40811038   0.03337296
7036.00   2.39790344   0.03335262
7038.00   2.30781245   0.03319800
7040.00   2.28346968   0.03326268
7042.00   2.29910183   0.03358977
7044.00   2.30770087   0.03376993
7046.00   2.30475831   0.03371717
7048.00   2.29158258   0.03352360
7050.00   2.24907684   0.03322130
7052.00   2.16491342   0.03265882
7054.00   2.12819338   0.03244019
7056.00   2.11858535   0.03250150
7058.00   2.11497545   0.03249677
7060.00   2.12075019   0.03190888
7062.00   2.13090253   0.03182624
7064.00   2.13513684   0.03395103
7066.00   2.13615680   0.03792465
7068.00   2.14719915   0.03869288
7070.00   2.16454053   0.03730438
7072.00   2.18640399   0.03610653
7074.00   2.20784664   0.03420247
7076.00   2.24111676   0.03279531
7078.00   2.30231285   0.03308275
7080.00   2.38487840   0.03450343
7082.00   2.42708063   0.03643024
7084.00   2.42899299   0.04065889
7086.00   2.45955896   0.04151996
7088.00   2.51249337   0.03845631
7090.00   2.56197309   0.03669937
7092.00   2.58231664   0.03964842
7094.00   2.59904742   0.04415507
7096.00   2.70289326   0.04478192
7098.00   2.92094040   0.04309854
7100.00   3.03941321   0.04127199
7102.00   3.12574410   0.03722685
7104.00   3.16921687   0.03435811
7106.00   3.15648794   0.03419481
7108.00   3.10968089   0.03515171
7110.00   3.07435942   0.03504194
7112.00   3.04943633   0.03465255
7114.00   2.95192909   0.03438393
7116.00   2.76979089   0.03396932
7118.00   2.61589265   0.03383073
7120.00   2.49710250   0.03347084
7122.00   2.38285065   0.03389075
7124.00   2.24209809   0.03676000
7126.00   2.07547450   0.04164359
7128.00   1.99960041   0.04202851
7130.00   2.01460505   0.03872903
7132.00   1.99995387   0.03630792
7134.00   1.96510875   0.03369808
7136.00   1.93598437   0.03167572
7138.00   1.92816031   0.03142849
7140.00   1.93350959   0.03247007
7142.00   1.92616987   0.03241926
7144.00   1.91766155   0.03190022
7146.00   1.89963615   0.03157830
7148.00   1.86915004   0.03085678
7150.00   1.83949614   0.03087180
7152.00   1.81385458   0.03248676
7154.00   1.79067183   0.03465002
7156.00   1.77529728   0.03503217
7158.00   1.77088368   0.03426659
7160.00   1.75823832   0.03347540
7162.00   1.73868167   0.03167751
7164.00   1.72480989   0.03056227
7166.00   1.71847105   0.03064599
7168.00   1.71693623   0.03123555
7170.00   1.71831572   0.03154671
7172.00   1.72223759   0.03194044
7174.00   1.73474920   0.03218456
7176.00   1.75626755   0.03237967
7178.00   1.77980566   0.03245131
7180.00   1.80880177   0.03218699
7182.00   1.83711934   0.03206489
7184.00   1.85745943   0.03269871
7186.00   1.87267220   0.03391408
7188.00   1.88803208   0.03423132
7190.00   1.89137793   0.03395816
7192.00   1.91574180   0.03373585
7194.00   1.95564604   0.03274284
7196.00   2.00946355   0.03269593
7198.00   2.08966041   0.03523869
7200.00   2.18735480   0.03899618
7202.00   2.21619391   0.03966828
7204.00   2.18290758   0.03834180
7206.00   2.16621113   0.03697802
7208.00   2.12756777   0.03411508
7210.00   2.11415505   0.03193333
7212.00   2.15409374   0.03164216
7214.00   2.21604896   0.03230521
7216.00   2.23085618   0.03234935
7218.00   2.21433043   0.03233019
7220.00   2.20732784   0.03240287
7222.00   2.19489169   0.03252653
7224.00   2.18442297   0.03268205
7226.00   2.17473531   0.03267885
7228.00   2.16812038   0.03287898
7230.00   2.16852880   0.03371933
7232.00   2.17011523   0.03460240
7234.00   2.19755149   0.03762849
7236.00   2.25514770   0.04300617
7238.00   2.30590248   0.04665123
7240.00   2.35381627   0.04972173
7242.00   2.39904785   0.05144441
7244.00   2.44706869   0.05058896
7246.00   2.50099182   0.04745032
7248.00   2.48000216   0.04554994
7250.00   2.36541605   0.04342515
7252.00   2.30391598   0.04202294
7254.00   2.26340604   0.04170899
7256.00   2.24962234   0.04128646
7258.00   2.27731013   0.04000610
7260.00   2.33518100   0.03828234
7262.00   2.36588836   0.03705464
7264.00   2.39087105   0.03520559
7266.00   2.40682554   0.03546073
7268.00   2.42338753   0.03749893
7270.00   2.41685939   0.03994453
7272.00   2.36468267   0.04290655
7274.00   2.29778814   0.04587537
7276.00   2.29128146   0.04731558
7278.00   2.34332561   0.04812123
7280.00   2.34019876   0.04765324
7282.00   2.29976130   0.04514154
7284.00   2.27123094   0.04321147
7286.00   2.24532676   0.04190182
7288.00   2.23829484   0.04122541
7290.00   2.28879809   0.04191250
7292.00   2.39718914   0.04416558
7294.00   2.45330429   0.04432645
7296.00   2.48397541   0.04313979
7298.00   2.51551747   0.04197937
7300.00   2.54779005   0.04032628
7302.00   2.57324219   0.03890049
7304.00   2.58553863   0.03838970
7306.00   2.58696818   0.03848505
7308.00   2.59405851   0.03975911
7310.00   2.57538414   0.04270268
7312.00   2.61446476   0.04466931
7314.00   2.70807076   0.04645797
7316.00   2.81761146   0.04768817
7318.00   2.94436336   0.04816951
7320.00   3.08024168   0.04808026
7322.00   3.12818313   0.04760303
7324.00   3.08765101   0.04634384
7326.00   3.07935858   0.04533921
7328.00   3.03835392   0.04349599
7330.00   3.04588318   0.04296850
7332.00   3.14740682   0.04487721
7334.00   3.27880597   0.04757364
7336.00   3.32072997   0.04858793
7338.00   3.31324005   0.04899361
7340.00   3.28624892   0.04869032
7342.00   3.20090461   0.04724403
7344.00   3.14437985   0.04595472
7346.00   3.12396455   0.04482270
7348.00   3.11667657   0.04375333
7350.00   3.10134625   0.04276391
7352.00   3.07911706   0.04174170
7354.00   3.11063385   0.04154908
7356.00   3.21142340   0.04215285
7358.00   3.27199960   0.04282394
7360.00   3.30534935   0.04394003
7362.00   3.31946635   0.04483446
7364.00   3.31330442   0.04482086
7366.00   3.28702879   0.04421407
7368.00   3.25540519   0.04485127
7370.00   3.20428658   0.04727372
7372.00   3.16331649   0.04753184
7374.00   3.13364935   0.04627208
7376.00   3.09414053   0.04425309
7378.00   3.03243852   0.04110714
7380.00   2.95907474   0.03707352
7382.00   2.89949822   0.03554577
7384.00   2.84326768   0.03614590
7386.00   2.79429936   0.03681804
7388.00   2.74692178   0.03836199
7390.00   2.71374798   0.04008992
7392.00   2.69876599   0.04234092
7394.00   2.69621062   0.04439659
7396.00   2.70140648   0.04474275
7398.00   2.73247671   0.04369218
7400.00   2.71019745   0.04300181
7402.00   2.62529230   0.04200864
7404.00   2.57893920   0.04100924
7406.00   2.58324814   0.03996382
7408.00   2.59809303   0.03890626
7410.00   2.58987498   0.03785295
7412.00   2.57383966   0.03670184
7414.00   2.54738069   0.03630333
7416.00   2.49560618   0.03692280
7418.00   2.46798563   0.03693015
7420.00   2.46537209   0.03624029
7422.00   2.46568131   0.03570823
7424.00   2.46225977   0.03597511
7426.00   2.45860434   0.03670288
7428.00   2.41291046   0.03690444
7430.00   2.29897332   0.03631167
7432.00   2.25107598   0.03695560
7434.00   2.26816440   0.03834472
7436.00   2.26395369   0.04026326
7438.00   2.19729614   0.04328381
7440.00   2.10561442   0.04639992
7442.00   2.05873322   0.04658800
7444.00   2.00826216   0.04438641
7446.00   2.03781819   0.04229849
7448.00   2.18151522   0.03795884
7450.00   2.27135777   0.03539252
7452.00   2.27100587   0.03669151
7454.00   2.23835206   0.03893661
7456.00   2.23369932   0.03818639
7458.00   2.23144841   0.03504474
7460.00   2.23743272   0.03446050
7462.00   2.25778866   0.03571712
7464.00   2.26850414   0.03650290
7466.00   2.25842476   0.03656287
7468.00   2.25655818   0.03695625
7470.00   2.29383755   0.03862679
7472.00   2.36015177   0.04114145
7474.00   2.41145062   0.04307365
7476.00   2.49293804   0.04619184
7478.00   2.50753379   0.04646147
7480.00   2.43579412   0.04319420
7482.00   2.36989617   0.03977782
7484.00   2.36257362   0.03864878
7486.00   2.38432837   0.03868513
7488.00   2.40786481   0.03875639
7490.00   2.47525263   0.03923174
7492.00   2.47850037   0.04019482
7494.00   2.40830135   0.04283059
7496.00   2.36669230   0.04375045
7498.00   2.38898849   0.04112843
7500.00   2.44313264   0.03672270
7502.00   2.49479318   0.03588084
7504.00   2.58642006   0.03826404
7506.00   2.60149765   0.03809025
7508.00   2.55816722   0.03624768
7510.00   2.50577068   0.03514757
7512.00   2.44627118   0.03511471
7514.00   2.37613273   0.03569075
7516.00   2.29438567   0.03669659
7518.00   2.18300867   0.03828121
7520.00   2.15029430   0.03968747
7522.00   2.20598459   0.04167792
7524.00   2.21555090   0.04263252
7526.00   2.18172956   0.04270635
7528.00   2.13170123   0.04210396
7530.00   2.07229900   0.04056387
7532.00   1.99486411   0.03786550
7534.00   1.97722435   0.03715526
7536.00   2.03516722   0.03787967
7538.00   2.03444862   0.03871088
7540.00   1.96420789   0.04070124
7542.00   1.92009592   0.04178591
7544.00   1.96260369   0.04062341
7546.00   2.05187988   0.03804205
7548.00   2.08517051   0.03684811
7550.00   2.08973527   0.03622301
7552.00   2.09714055   0.03578074
7554.00   2.07924032   0.03552334
7556.00   2.08852696   0.03578850
7558.00   2.14728928   0.03655382
7560.00   2.22957611   0.03785523
7562.00   2.29383636   0.04006648
7564.00   2.37608504   0.04379971
7566.00   2.39195633   0.04518985
7568.00   2.34773731   0.04549326
7570.00   2.30022168   0.04498557
7572.00   2.24935198   0.04322433
7574.00   2.19275570   0.04091135
7576.00   2.13240957   0.03920713
7578.00   2.05656624   0.03743890
7580.00   2.03722119   0.03703185
7582.00   2.08809590   0.03793961
7584.00   2.09576654   0.03903681
7586.00   2.06838632   0.04117083
7588.00   2.02128386   0.04261341
7590.00   1.95008492   0.04115506
7592.00   1.85257971   0.03726190
7594.00   1.82039976   0.04019027
7596.00   1.81808805   0.04756513
7598.00   1.85976183   0.05390929
7600.00   1.97242916   0.06141480
7602.00   2.07925129   0.06725062
7604.00   2.15613508   0.07121670
7606.00   2.21388435   0.07378516
7608.00   2.20248365   0.07262369
7610.00   2.08126092   0.06631263
7612.00   2.04930282   0.06179493
7614.00   2.09664035   0.05569952
7616.00   2.08887506   0.05132351
7618.00   1.97260082   0.05087025
7620.00   1.81835961   0.05221767
7622.00   1.73871112   0.05136136
7624.00   1.69656169   0.04902047
7626.00   1.66046929   0.04882820
7628.00   1.60123169   0.05010381
7630.00   1.63341880   0.05158997
7632.00   1.81842268   0.05428099
7634.00   2.01967263   0.05615324
7636.00   2.07552075   0.05429769
7638.00   2.04694486   0.04884873
7640.00   2.00355911   0.04636271
7642.00   1.86274040   0.04548103
7644.00   1.81117976   0.04451730
7646.00   1.85858250   0.04384415
7648.00   1.91614592   0.04323679
7650.00   1.92550230   0.04234745
7652.00   1.91531932   0.04132107
7654.00   1.91687977   0.04095249
7656.00   1.93551087   0.04127935
7658.00   1.91871941   0.04134495
7660.00   1.86463583   0.04160673
7662.00   1.81031108   0.04146514
7664.00   1.77287638   0.04054208
7666.00   1.73917806   0.03911240
7668.00   1.68758833   0.03791147
7670.00   1.57950485   0.03635715
7672.00   1.58011782   0.03554127
7674.00   1.68818164   0.03542472
7676.00   1.76952255   0.03533389
7678.00   1.79785681   0.03485052
7680.00   1.80669272   0.03463651
7682.00   1.82228923   0.03603941
7684.00   1.84050703   0.03939702
7686.00   1.83045101   0.03973583
7688.00   1.75780773   0.03732346
7690.00   1.75348413   0.03615184
7692.00   1.85021245   0.03665892
7694.00   1.95976484   0.03754386
7696.00   1.99318814   0.03782382
7698.00   1.98395121   0.03789918
7700.00   1.98685205   0.03817920
7702.00   1.97692311   0.03670287
7704.00   1.97611976   0.03919265
7706.00   1.99063098   0.04604390
7708.00   1.99664497   0.05190378
7710.00   1.95701456   0.05472409
7712.00   1.89124501   0.05621554
7714.00   1.97195125   0.05803193
7716.00   2.24756670   0.06106543
7718.00   2.36051655   0.06060070
7720.00   2.37139368   0.05640628
7722.00   2.35781908   0.05176620
7724.00   2.33830810   0.04757754
7726.00   2.30257654   0.04344673
7728.00   2.26885462   0.04155367
7730.00   2.18726873   0.04274959
7732.00   2.21894145   0.04209321
7734.00   2.39427447   0.04066128
7736.00   2.48968744   0.03952987
7738.00   2.43362498   0.03819004
7740.00   2.34571815   0.03768789
7742.00   2.39524484   0.04045581
7744.00   2.55983496   0.04596338
7746.00   2.59197426   0.04911306
7748.00   2.50622773   0.05197702
7750.00   2.49352670   0.05378847
7752.00   2.57275534   0.05486097
7754.00   2.66522741   0.05494151
7756.00   2.71321416   0.05343603
7758.00   2.74708819   0.05025648
7760.00   2.72346330   0.04787900
7762.00   2.61435509   0.04525503
7764.00   2.55426311   0.04309020
7766.00   2.54398394   0.04076325
7768.00   2.51986265   0.03966444
7770.00   2.43620801   0.04136347
7772.00   2.32042074   0.04471745
7774.00   2.26789546   0.04530738
7776.00   2.28142357   0.04422034
7778.00   2.23992038   0.04332872
7780.00   2.15082145   0.04148494
7782.00   2.08075428   0.04033209
7784.00   2.05450654   0.04017628
7786.00   2.04846525   0.04100301
7788.00   2.03040934   0.04388776
7790.00   2.01878142   0.04988843
7792.00   1.98883963   0.05164972
7794.00   1.92901075   0.05140879
7796.00   1.89411366   0.05007783
7798.00   1.90479767   0.04648446
7800.00   1.92190921   0.04237644
7802.00   1.89140379   0.04207701
7804.00   1.82618558   0.04496132
7806.00   1.78237033   0.04525122
7808.00   1.71104479   0.04423209
7810.00   1.70682633   0.04365717
7812.00   1.80245018   0.04300900
7814.00   1.90096653   0.04304061
7816.00   1.92113447   0.04450575
7818.00   1.90025353   0.04691967
7820.00   1.85267949   0.05038926
7822.00   1.70437968   0.05725201
7824.00   1.67720437   0.05899538
7826.00   1.78183103   0.05659584
7828.00   1.87813091   0.05276581
7830.00   1.90068388   0.04801343
7832.00   1.88747406   0.04171970
7834.00   1.84652138   0.03879789
7836.00   1.71691060   0.03930905
7838.00   1.69359004   0.03930590
7840.00   1.75286198   0.03949703
7842.00   1.81011868   0.04099470
7844.00   1.84872413   0.04438247
7846.00   1.88109016   0.04841663
7848.00   1.89800465   0.05120948
7850.00   1.89971817   0.05365931
7852.00   1.90012467   0.05562024
7854.00   1.90335071   0.05800916
7856.00   1.88501692   0.05850019
7858.00   1.84261119   0.05606093
7860.00   1.78220141   0.05273802
7862.00   1.70086193   0.05161905
7864.00   1.58222616   0.05180312
7866.00   1.54282033   0.05139789
7868.00   1.56522405   0.05164595
7870.00   1.58779263   0.05059644
7872.00   1.61651087   0.04695204
7874.00   1.65620303   0.04389166
7876.00   1.70842433   0.04484630
7878.00   1.77294278   0.04832912
7880.00   1.83854067   0.05059220
7882.00   1.94924843   0.05419542
7884.00   1.97489476   0.05494761
7886.00   1.91004598   0.05305870
7888.00   1.84185481   0.05053791
7890.00   1.80618227   0.04810932
7892.00   1.78106725   0.04532603
7894.00   1.76388216   0.04299309
7896.00   1.74633908   0.04028405
7898.00   1.75974369   0.03918674
7900.00   1.80213559   0.03921242
7902.00   1.85343277   0.04044805
7904.00   1.93403995   0.04324374
7906.00   2.00783944   0.04664867
7908.00   1.97707152   0.04895578
7910.00   1.84831858   0.05015807
7912.00   1.76494133   0.05370868
7914.00   1.64592218   0.06040738
7916.00   1.59944069   0.06371624
7918.00   1.64578223   0.06377470
7920.00   1.73309767   0.06199919
7922.00   1.82390940   0.05867596
7924.00   1.95814514   0.05225537
7926.00   1.95630527   0.05045335
7928.00   1.80851531   0.05385369
7930.00   1.72681797   0.05393113
7932.00   1.66443980   0.05089005
7934.00   1.65638769   0.04703970
7936.00   1.76259208   0.04367374
7938.00   1.95778418   0.04005300
7940.00   2.03022194   0.03836837
7942.00   2.04165888   0.03855522
7944.00   2.02797771   0.03921849
7946.00   1.95907211   0.04140916
7948.00   1.89108884   0.04307445
7950.00   1.83736134   0.04348917
7952.00   1.79352438   0.04325959
7954.00   1.80176544   0.04285088
7956.00   1.87731004   0.04010361
7958.00   1.91102171   0.04201517
7960.00   1.95068407   0.04814222
7962.00   1.95346439   0.05248222
7964.00   1.89461339   0.05530064
7966.00   1.81331456   0.05668562
7968.00   1.77471817   0.05460390
7970.00   1.74542737   0.04750642
7972.00   1.76169097   0.04497984
7974.00   1.84759784   0.04507844
7976.00   1.89769006   0.04592794
7978.00   1.90157521   0.04852677
7980.00   1.89662921   0.05081802
7982.00   1.91495240   0.05024693
7984.00   1.94499171   0.04740084
7986.00   1.96211433   0.04725344
7988.00   1.97094095   0.04868224
7990.00   1.98235798   0.05013577
7992.00   1.99548602   0.05282140
7994.00   2.00800920   0.05435223
7996.00   2.02165151   0.05295828
7998.00   2.03549242   0.04946843
8000.00   2.02849889   0.04691160
8002.00   1.98699141   0.04292674
8004.00   1.98020566   0.04173071
8006.00   2.02622294   0.04376870
8008.00   2.03121662   0.04550592
8010.00   1.92660594   0.04563736
8012.00   1.78455079   0.04536618
8014.00   1.80045426   0.04644033
8016.00   1.96292543   0.04817980
8018.00   2.04192352   0.05043072
8020.00   2.13322711   0.05315414
8022.00   2.16114330   0.05627691
8024.00   2.09015703   0.06164052
8026.00   1.98148942   0.06558208
8028.00   1.92723751   0.06180369
8030.00   1.89534223   0.04843735
8032.00   1.85698855   0.04220006
8034.00   1.82169962   0.04087598
8036.00   1.78812766   0.03971259
8038.00   1.73578644   0.03954960
8040.00   1.70966768   0.03972134
8042.00   1.77157962   0.03882854
8044.00   1.91024792   0.03725363
8046.00   1.93787134   0.03741267
8048.00   1.89534187   0.03882731
8050.00   1.85067451   0.04041917
8052.00   1.75496638   0.04275734
8054.00   1.69716167   0.04476293
8056.00   1.75334513   0.04602633
8058.00   1.87741685   0.04683737
8060.00   1.89726269   0.04659814
8062.00   1.84193647   0.04406118
8064.00   1.81654453   0.04402408
8066.00   1.79268157   0.04661101
8068.00   1.77128994   0.04800244
8070.00   1.75283551   0.04699373
8072.00   1.73705590   0.04475386
8074.00   1.72418118   0.04291657
8076.00   1.70910633   0.04047843
8078.00   1.71172988   0.03879779
8080.00   1.73401856   0.03734949
8082.00   1.75297308   0.03667767
8084.00   1.77193379   0.03730944
8086.00   1.78448999   0.03829910
8088.00   1.77403879   0.03823483
8090.00   1.74293888   0.03743805
8092.00   1.71797264   0.03750232
8094.00   1.65077293   0.03772061
8096.00   1.66273546   0.03869238
8098.00   1.78916252   0.04115332
8100.00   1.92049658   0.04308441
8102.00   1.96706724   0.04275556
8104.00   1.97066617   0.04084535
8106.00   1.93864894   0.03987410
8108.00   1.82141459   0.03877223
8110.00   1.77006328   0.03829581
8112.00   1.76849103   0.03872450
8114.00   1.77967489   0.03902448
8116.00   1.79259384   0.03859029
8118.00   1.81226075   0.03780018
8120.00   1.81280077   0.03746145
8122.00   1.77883375   0.03736185
8124.00   1.79304492   0.03727237
8126.00   1.85615432   0.03719996
8128.00   1.90285909   0.03730369
8130.00   1.91499543   0.03766782
8132.00   1.91038144   0.03817880
8134.00   1.90419221   0.03863896
8136.00   1.88928425   0.03925895
8138.00   1.87115753   0.03946641
8140.00   1.84229589   0.03928262
8142.00   1.81967735   0.03917248
8144.00   1.80642474   0.03898396
8146.00   1.79556906   0.03899835
8148.00   1.77686906   0.03984703
8150.00   1.74679422   0.04158474
8152.00   1.75762331   0.04178916
8154.00   1.79993927   0.04056840
8156.00   1.85099888   0.04004367
8158.00   1.93473327   0.04013386
8160.00   2.00294995   0.04042649
8162.00   2.00680184   0.04075192
8164.00   1.96618664   0.04120377
8166.00   1.96533680   0.04146872
8168.00   1.98291612   0.04021913
8170.00   1.99541879   0.04209702
8172.00   2.01827359   0.04740810
8174.00   2.02534533   0.05162564
8176.00   1.99663806   0.05293240
8178.00   1.94811451   0.05313408
8180.00   1.92926359   0.05585694
8182.00   1.92853343   0.06139636
8184.00   1.92435646   0.06348358
8186.00   1.92790449   0.06376819
8188.00   1.92589450   0.06347053
8190.00   1.91108143   0.06241540
8192.00   1.89371955   0.06100217
8194.00   1.89463186   0.06088768
8196.00   1.92035484   0.06232263
8198.00   1.90432405   0.06128509
8200.00   1.82565022   0.05817308
8202.00   1.80645454   0.05512551
8204.00   1.86230946   0.05187993
8206.00   1.94955647   0.04873263
8208.00   2.03929281   0.04663873
8210.00   2.16068435   0.04548671
8212.00   2.18727756   0.04414625
8214.00   2.12223005   0.04294100
8216.00   2.08351421   0.04209523
8218.00   2.05573249   0.04160431
8220.00   2.03321552   0.04146707
8222.00   2.00982618   0.04178945
8224.00   1.98727453   0.04252923
8226.00   2.02617550   0.04285106
8228.00   2.12640262   0.04272811
8230.00   2.22030807   0.04320177
8232.00   2.36616373   0.04455584
8234.00   2.45420742   0.04535795
8236.00   2.42466331   0.04501277
8238.00   2.32642031   0.04398286
8240.00   2.25763941   0.04291689
8242.00   2.12830353   0.04093770
8244.00   2.13039660   0.04020305
8246.00   2.28539133   0.03995974
8248.00   2.37298036   0.04065821
8250.00   2.33372641   0.04305379
8252.00   2.25154161   0.04563460
8254.00   2.22328210   0.04584837
8256.00   2.19197249   0.04412023
8258.00   2.24741220   0.04373411
8260.00   2.43283224   0.04404979
8262.00   2.53590512   0.04396093
8264.00   2.52659678   0.04198433
8266.00   2.49975300   0.04139238
8268.00   2.54955006   0.04636546
8270.00   2.65009713   0.05469118
8272.00   2.65660524   0.05915884
8274.00   2.60765982   0.06360532
8276.00   2.53138423   0.06501544
8278.00   2.38921690   0.06214244
8280.00   2.26257110   0.05960439
8282.00   2.20913386   0.06132444
8284.00   2.19856310   0.06513742
8286.00   2.18718672   0.06533890
8288.00   2.19274998   0.06229949
8290.00   2.20683551   0.06147668
8292.00   2.24549913   0.06189376
8294.00   2.27193761   0.06260618
8296.00   2.28344417   0.06383449
8298.00   2.27625966   0.06509546
8300.00   2.20440984   0.06403162
8302.00   2.04510474   0.06095050
8304.00   1.94804394   0.05758250
8306.00   1.82101202   0.05125110
8308.00   1.79810619   0.04723625
8310.00   1.95590556   0.04815013
8312.00   2.16075087   0.05069672
8314.00   2.19862819   0.05068509
8316.00   2.12407804   0.04996456
8318.00   2.11121893   0.04785293
8320.00   2.09298301   0.04241729
8322.00   2.10618186   0.03919602
8324.00   2.17751217   0.03935404
8326.00   2.24134064   0.04038484
8328.00   2.22783399   0.04003415
8330.00   2.16136241   0.03906028
8332.00   2.12649179   0.04040445
8334.00   2.08423424   0.04118567
8336.00   2.06926322   0.04682129
8338.00   2.10290074   0.05682184
8340.00   2.11671925   0.06572877
8342.00   2.06852460   0.07319247
8344.00   1.98240733   0.07983235
8346.00   1.89470899   0.07979415
8348.00   1.69198346   0.07202669
8350.00   1.70926082   0.06717735
8352.00   1.99454188   0.06135397
8354.00   2.17873478   0.05735546
8356.00   2.11009383   0.05726846
8358.00   1.94046438   0.05938536
8360.00   1.91491926   0.06023537
8362.00   1.95559645   0.06286319
8364.00   2.00308943   0.06036873
8366.00   2.10625720   0.05063834
8368.00   2.17640471   0.04316185
8370.00   2.19833326   0.04110284
8372.00   2.20095420   0.04196018
8374.00   2.21388912   0.04339005
8376.00   2.23209286   0.04664907
8378.00   2.21258736   0.04903035
8380.00   2.11951041   0.05273196
8382.00   2.10382032   0.05368913
8384.00   2.20420218   0.05105261
8386.00   2.29589105   0.04785694
8388.00   2.26182199   0.04645180
8390.00   2.14570165   0.04551237
8392.00   2.11636424   0.04997970
8394.00   2.15256619   0.06099569
8396.00   2.14069796   0.06579638
8398.00   2.08916545   0.06763472
8400.00   2.03520918   0.06746867
8402.00   1.98352849   0.06494841
8404.00   1.93506885   0.06015746
8406.00   1.96034920   0.05613332
8408.00   2.09080696   0.04984702
8410.00   2.13622832   0.04744867
8412.00   2.10964513   0.04931097
8414.00   2.12147784   0.05092935
8416.00   2.21734452   0.05119498
8418.00   2.34384155   0.05125260
8420.00   2.41221786   0.05185758
8422.00   2.45725679   0.05151682
8424.00   2.47639418   0.05519401
8426.00   2.44832993   0.06354037
8428.00   2.43736529   0.06827191
8430.00   2.46302581   0.07015633
8432.00   2.48355985   0.06968821
8434.00   2.44134951   0.06538980
8436.00   2.33788276   0.05551766
8438.00   2.32610297   0.04960284
8440.00   2.38882589   0.04470209
8442.00   2.42753768   0.04233475
8444.00   2.42622423   0.04290832
8446.00   2.45170403   0.04602542
8448.00   2.56447124   0.05226995
8450.00   2.74047589   0.06067099
8452.00   2.86081433   0.06202313
8454.00   2.95944691   0.05665722
8456.00   3.05715775   0.05535138
8458.00   3.11043859   0.05628740
8460.00   3.21867824   0.05835252
8462.00   3.43674207   0.06172662
8464.00   3.72568417   0.06580922
8466.00   4.01383257   0.06759579
8468.00   4.41664839   0.06924191
8470.00   4.63039160   0.06768888
8472.00   4.67315722   0.06102877
8474.00   4.74271154   0.05604016
8476.00   4.86783409   0.05569391
8478.00   5.02590513   0.05722827
8480.00   5.24394512   0.05684277
8482.00   5.51288700   0.05482643
8484.00   5.82582808   0.05656153
8486.00   6.21110392   0.06243095
8488.00   6.59150839   0.06557176
8490.00   6.99417257   0.06558853
8492.00   7.37082052   0.06476398
8494.00   7.64665699   0.06497837
8496.00   7.84779406   0.06529609
8498.00   8.02323914   0.06659306
8500.00   8.07937717   0.06937083
8502.00   8.25802231   0.07099091
8504.00   8.62250710   0.07167683
8506.00   8.93723106   0.07200228
8508.00   9.02219391   0.07247535
8510.00   8.96376133   0.07288340
8512.00   8.96663284   0.07134058
8514.00   8.89276028   0.06618852
8516.00   8.96339226   0.06450002
8518.00   9.17423248   0.06600585
8520.00   9.39998913   0.06748009
8522.00   9.61483002   0.06782913
8524.00   9.82548618   0.06781265
8526.00   9.93425083   0.06763546
8528.00   9.93532562   0.06674273
8530.00   9.97718906   0.06683318
8532.00   10.01724911   0.06774505
8534.00   10.05094242   0.06850144
8536.00   10.09994221   0.06868193
8538.00   10.12609577   0.06895206
8540.00   10.04532719   0.07051457
8542.00   9.86755085   0.07370494
8544.00   9.70882511   0.07418421
8546.00   9.41137218   0.07055816
8548.00   9.33757305   0.07113902
8550.00   9.55613232   0.07776640
8552.00   9.86766338   0.08443946
8554.00   10.10750771   0.08701155
8556.00   10.37340260   0.08800230
8558.00   10.44593716   0.08510546
8560.00   10.29480171   0.07459057
8562.00   10.24183655   0.06861860
8564.00   10.25171852   0.06545426
8566.00   10.27775669   0.06646973
8568.00   10.30764198   0.07472820
8570.00   10.34776211   0.08676940
8572.00   10.35426426   0.08837242
8574.00   10.28488255   0.08184902
8576.00   10.32940578   0.07811583
8578.00   10.53074741   0.07316017
8580.00   10.64876461   0.07026958
8582.00   10.59856129   0.07234480
8584.00   10.44575214   0.07645965
8586.00   10.23724365   0.07569925
8588.00   9.88638687   0.07075804
8590.00   9.65276623   0.06845800
8592.00   9.42754745   0.06651542
8594.00   9.29824448   0.06586283
8596.00   9.28736115   0.06706657
8598.00   9.35772610   0.06914199
8600.00   9.48529911   0.07076643
8602.00   9.75863743   0.07284176
8604.00   9.75528622   0.07339483
8606.00   9.54860687   0.07252280
8608.00   9.31876373   0.07190607
8610.00   9.00687122   0.07146910
8612.00   8.70565414   0.07104976
8614.00   8.54583836   0.07068465
8616.00   8.48962784   0.07040414
8618.00   8.29026031   0.06969078
8620.00   8.02488518   0.06818252
8622.00   7.70866394   0.06753296
8624.00   7.26471472   0.06779874
8626.00   6.87520552   0.06812348
8628.00   6.66107941   0.06816398
8630.00   6.55223989   0.06809444
8632.00   6.41025543   0.06734732
8634.00   6.33884621   0.06590927
8636.00   6.15513229   0.06440306
8638.00   5.85330391   0.06229832
8640.00   5.58031845   0.06048878
8642.00   5.37056065   0.05906469
8644.00   5.20082712   0.05814396
8646.00   5.09191465   0.05863998
8648.00   5.05595684   0.05989831
8650.00   5.01337719   0.06299945
8652.00   4.96482563   0.06908651
8654.00   4.97786713   0.07299220
8656.00   5.10433388   0.07518061
8658.00   5.24525690   0.07556856
8660.00   5.24690819   0.07226010
8662.00   5.14030647   0.06359607
8664.00   5.12050819   0.06089041
8666.00   5.09786367   0.06286609
8668.00   5.15639544   0.06391080
8670.00   5.31406212   0.06481413
8672.00   5.50932312   0.06527258
8674.00   5.70611715   0.06434547
8676.00   5.92995214   0.06223261
8678.00   6.05608225   0.06193294
8680.00   6.09487343   0.06375717
8682.00   6.14741564   0.06354470
8684.00   6.18110609   0.06103303
8686.00   6.22572994   0.05890105
8688.00   6.30369473   0.05889863
8690.00   6.40008926   0.05996775
8692.00   6.47679424   0.05989115
8694.00   6.53139734   0.05878541
8696.00   6.61775923   0.05891618
8698.00   6.72417212   0.05978059
8700.00   6.84116364   0.06098381
8702.00   6.99457693   0.06288724
8704.00   7.14287567   0.06480880
8706.00   7.16889238   0.06478211
8708.00   7.10928965   0.06216498
8710.00   6.99996996   0.06295964
8712.00   6.73240042   0.06790549
8714.00   6.59064817   0.06920906
8716.00   6.62459040   0.06469771
8718.00   6.72154856   0.05892146
8720.00   6.77291536   0.05898536
8722.00   6.82878828   0.06316547
8724.00   6.86280203   0.06406163
8726.00   6.93581200   0.06415053
8728.00   6.88645506   0.06332181
8730.00   6.68735075   0.06081584
8732.00   6.45081615   0.05822483
8734.00   6.25739765   0.05708096
8736.00   6.06817961   0.05676515
8738.00   5.87459946   0.05646559
8740.00   5.65642118   0.05616716
8742.00   5.48859453   0.05683606
8744.00   5.38381481   0.05896030
8746.00   5.26718664   0.06061881
8748.00   5.08616734   0.06069472
8750.00   4.88262749   0.06010802
8752.00   4.78273296   0.06127154
8754.00   4.79251575   0.06216136
8756.00   4.73625278   0.06640857
8758.00   4.66331768   0.07464068
8760.00   4.58062696   0.08044450
8762.00   4.50117826   0.08316673
8764.00   4.40437222   0.08436714
8766.00   4.23614025   0.08490693
8768.00   3.95810175   0.08429813
8770.00   3.84104896   0.08338934
8772.00   3.85688019   0.08151213
8774.00   3.84172153   0.07976888
8776.00   3.81184006   0.07863044
8778.00   3.74983263   0.07704638
8780.00   3.59242129   0.07320312
8782.00   3.33288598   0.06647625
8784.00   3.23384237   0.06511495
8786.00   3.25085139   0.07043337
8788.00   3.25660372   0.07079332
8790.00   3.27207637   0.06618285
8792.00   3.29335999   0.06047595
8794.00   3.31955791   0.05639875
8796.00   3.35245252   0.05271091
8798.00   3.33120298   0.05016461
8800.00   3.23030472   0.04883894
8802.00   3.20151496   0.04839397
8804.00   3.26508284   0.04994242
8806.00   3.27458358   0.05088005
8808.00   3.16701007   0.05001948
8810.00   2.98916340   0.04827788
8812.00   2.79609680   0.04724016
8814.00   2.48644567   0.04391649
8816.00   2.34947419   0.04691088
8818.00   2.35372210   0.05267951
8820.00   2.34583759   0.06136364
8822.00   2.32148528   0.07406177
8824.00   2.27492046   0.08600768
8826.00   2.13350058   0.09203935
8828.00   1.86730123   0.09620616
8830.00   1.76611567   0.09527003
8832.00   1.78857207   0.08727918
8834.00   1.78834867   0.08030284
8836.00   1.76588869   0.07438402
8838.00   1.74205327   0.06865682
8840.00   1.71965814   0.06306326
8842.00   1.69172382   0.05754705
8844.00   1.71016157   0.05360578
8846.00   1.79549134   0.05145018
8848.00   1.82955444   0.05020434
8850.00   1.82683837   0.05115258
8852.00   1.80094516   0.05181621
8854.00   1.74263179   0.05012150
8856.00   1.65700614   0.04702634
8858.00   1.64639688   0.04673401
8860.00   1.68631220   0.04808778
8862.00   1.74003327   0.05023422
8864.00   1.83785212   0.05464224
8866.00   1.92425120   0.05746798
8868.00   1.98763442   0.05764784
8870.00   2.03227568   0.05629459
8872.00   2.02547431   0.05430695
8874.00   1.91496563   0.04797504
8876.00   1.94301951   0.04933607
8878.00   2.07487965   0.05471686
8880.00   2.20239615   0.06286135
8882.00   2.33722901   0.07592627
8884.00   2.45323277   0.08714506
8886.00   2.46344757   0.08872428
8888.00   2.35620999   0.08378392
8890.00   2.38452244   0.07875599
8892.00   2.50179935   0.06729585
8894.00   2.60805774   0.05983018
8896.00   2.71839690   0.05804570
8898.00   2.81988263   0.05957527
8900.00   2.89017510   0.06334980
8902.00   2.93892193   0.07005496
8904.00   2.97286272   0.07167809
8906.00   2.96858525   0.06961583
8908.00   2.99335265   0.06880616
8910.00   3.03775215   0.06680562
8912.00   3.09378767   0.06738783
8914.00   3.18825817   0.07388814
8916.00   3.30092859   0.08313935
8918.00   3.23052382   0.08704800
8920.00   2.97050667   0.09046751
8922.00   2.77899599   0.08863714
8924.00   2.55457282   0.07980978
8926.00   2.38390756   0.07040234
8928.00   2.30238557   0.06221006
8930.00   2.27517533   0.05447353
8932.00   2.25212717   0.05084974
8934.00   2.27662253   0.05241864
8936.00   2.25162125   0.05342451
8938.00   2.21935534   0.05650624
8940.00   2.14302182   0.05881222
8942.00   1.98119915   0.06030074
8944.00   1.81308591   0.06128085
8946.00   1.75943518   0.06130201
8948.00   1.77916908   0.05948627
8950.00   1.81797481   0.06219799
8952.00   1.94333470   0.06855365
8954.00   2.00222683   0.07369021
8956.00   1.99372840   0.07984532
8958.00   1.95870054   0.08354424
8960.00   1.90991938   0.08128195
8962.00   1.83295298   0.07408473
8964.00   1.85225606   0.06817587
8966.00   1.97117758   0.05902286
8968.00   2.04488945   0.05312746
8970.00   2.10293508   0.05118804
8972.00   2.14584351   0.05061068
8974.00   2.15959024   0.05003907
8976.00   2.15609932   0.05031490
8978.00   2.20776272   0.05176514
8980.00   2.35039949   0.05438479
8982.00   2.37669253   0.05736805
8984.00   2.31196547   0.06171015
8986.00   2.24668527   0.06493413
8988.00   2.19875455   0.06662337
8990.00   2.15434861   0.06744700
8992.00   2.11884570   0.06769423
8994.00   2.06977439   0.06604837
8996.00   2.09368038   0.06768137
8998.00   2.23184133   0.07218174
9000.00   2.28680444   0.07558621
9002.00   2.21123219   0.07855312
9004.00   2.10888457   0.08030229
9006.00   2.09565020   0.07907894
9008.00   2.13079858   0.07534316
9010.00   2.15720391   0.07031316
9012.00   2.18747997   0.05981783
9014.00   2.23937488   0.05316126
9016.00   2.33888412   0.05228550
9018.00   2.42064524   0.05304000
9020.00   2.43054056   0.05246449
9022.00   2.39353037   0.05200925
9024.00   2.34237242   0.05146419
9026.00   2.17812490   0.05025002
9028.00   2.18520808   0.05047161
9030.00   2.37568212   0.05190347
9032.00   2.55728674   0.05384301
9034.00   2.64997816   0.05637799
9036.00   2.70383835   0.05919560
9038.00   2.73478723   0.06034726
9040.00   2.70485568   0.06003497
9042.00   2.72354150   0.06030503
9044.00   2.73030257   0.06005837
9046.00   2.80316114   0.06066804
9048.00   2.99868846   0.06312862
9050.00   3.23302412   0.06580424
9052.00   3.33706903   0.06578085
9054.00   3.34152269   0.06365882
9056.00   3.40854907   0.06206141
9058.00   3.49732423   0.05946094
9060.00   3.58039594   0.05785195
9062.00   3.67099333   0.05756912
9064.00   3.74461150   0.05791624
9066.00   3.76345062   0.05822993
9068.00   3.73777962   0.05871015
9070.00   3.71519113   0.05998950
9072.00   3.70325804   0.06292474
9074.00   3.63023496   0.06402951
9076.00   3.49814534   0.06366549
9078.00   3.32798076   0.06240650
9080.00   3.11470580   0.06006698
9082.00   2.85798073   0.05650721
9084.00   2.69330478   0.05522134
9086.00   2.59383488   0.05565763
9088.00   2.49498057   0.05610580
9090.00   2.40396357   0.05706483
9092.00   2.34198308   0.05825481
9094.00   2.34220839   0.05993044
9096.00   2.36868238   0.06168370
9098.00   2.28225732   0.06159995
9100.00   2.07331824   0.05969493
9102.00   1.95875716   0.05843719
9104.00   1.86233211   0.05708857
9106.00   1.81663001   0.05562641
9108.00   1.85344851   0.05340952
9110.00   1.92006838   0.05150098
9112.00   1.91650200   0.05263049
9114.00   1.86602855   0.05726330
9116.00   1.85075498   0.05720968
9118.00   1.83716655   0.05323320
9120.00   1.84877586   0.05060201
9122.00   1.89516366   0.04942297
9124.00   1.95243979   0.04911970
9126.00   1.99933171   0.04980005
9128.00   2.04896998   0.05161831
9130.00   2.06828713   0.05241511
9132.00   2.05682516   0.05301809
9134.00   2.05019832   0.05312761
9136.00   2.05027843   0.05240170
9138.00   2.03787875   0.05178875
9140.00   2.00029111   0.05202845
9142.00   1.94424963   0.05272818
9144.00   1.88470209   0.05285880
9146.00   1.80815470   0.05254952
9148.00   1.74196577   0.05256607
9150.00   1.66964245   0.05256138
9152.00   1.61646926   0.05293956
9154.00   1.59234679   0.05403051
9156.00   1.58919549   0.05543505
9158.00   1.59858167   0.05617687
9160.00   1.63362908   0.05706532
9162.00   1.65679920   0.05650247
9164.00   1.67676675   0.05414274
9166.00   1.70095336   0.05216999
9168.00   1.72659838   0.05072169
9170.00   1.75908220   0.04978010
9172.00   1.81060207   0.05002134
9174.00   1.87876093   0.05160542
9176.00   1.94970500   0.05217148
9178.00   2.04191875   0.05230070
9180.00   2.11282158   0.05252718
9182.00   2.16238999   0.05294415
9184.00   2.19928217   0.05323729
9186.00   2.23364234   0.05284707
9188.00   2.26602197   0.05172265
9190.00   2.23775053   0.05320971
9192.00   2.14162040   0.05771687
9194.00   2.06245160   0.05985462
9196.00   1.95545352   0.06109822
9198.00   1.89153397   0.06077822
9200.00   1.93828893   0.05712343
9202.00   2.05347157   0.05077516
9204.00   2.05569172   0.05085711
9206.00   1.94661331   0.05712602
9208.00   1.93379688   0.05981787
9210.00   1.95548666   0.06209745
9212.00   2.02803397   0.06297628
9214.00   2.19560313   0.06137755
9216.00   2.39763427   0.05863029
9218.00   2.45141292   0.05874177
9220.00   2.34425020   0.06138199
9222.00   2.40293336   0.06186505
9224.00   2.55685496   0.06106913
9226.00   2.72382259   0.06063235
9228.00   2.91910315   0.06088318
9230.00   3.11367846   0.06120403
9232.00   3.24258018   0.06089731
9234.00   3.32693958   0.06001975
9236.00   3.40190959   0.05993122
9238.00   3.44067502   0.06046776
9240.00   3.49087381   0.06081610
9242.00   3.55819559   0.06093445
9244.00   3.61771297   0.06112909
9246.00   3.63510466   0.06158134
9248.00   3.61620617   0.06218159
9250.00   3.71636200   0.06320426
9252.00   3.93702030   0.06513919
9254.00   4.10609150   0.06604061
9256.00   4.24554443   0.06558463
9258.00   4.38915300   0.06567603
9260.00   4.56603718   0.06738000
9262.00   4.75399923   0.06992903
9264.00   4.85255766   0.07207706
9266.00   4.87602282   0.07590012
9268.00   4.89702129   0.07590732
9270.00   4.87986803   0.07156539
9272.00   4.86592054   0.06844810
9274.00   4.86384535   0.06847367
9276.00   4.86667061   0.06997050
9278.00   4.87959051   0.07141807
9280.00   4.92833185   0.07376310
9282.00   4.89507484   0.07528162
9284.00   4.78117418   0.07682345
9286.00   4.68784142   0.07753183
9288.00   4.63706589   0.07709034
9290.00   4.58003378   0.07621024
9292.00   4.46017885   0.07538624
9294.00   4.28925896   0.07351294
9296.00   4.14983559   0.07650637
9298.00   4.03322077   0.07935523
9300.00   3.88432789   0.09011704
9302.00   3.69532204   0.10935862
9304.00   3.50120974   0.12618424
9306.00   3.33706737   0.13528214
9308.00   3.18997979   0.14075142
9310.00   2.96448016   0.15219519
9312.00   2.62886643   0.16626769
9314.00   2.39095902   0.18050335
9316.00   2.19983482   0.20355283
9318.00   2.06753635   0.21385589
9320.00   1.99228466   0.19876160
9322.00   1.97953892   0.16582458
9324.00   2.08467412   0.15346441
9326.00   2.42899656   0.16052733
9328.00   2.53127098   0.15340662
9330.00   2.45678353   0.13536431
9332.00   2.41809726   0.12133857
9334.00   2.48799181   0.11831895
9336.00   2.57217312   0.12091175
9338.00   2.53160977   0.12227943
9340.00   2.38799143   0.12769222
9342.00   2.29116130   0.12503096
9344.00   2.21741438   0.11430738
9346.00   2.10001373   0.10485796
9348.00   1.86581945   0.09616236
9350.00   1.67214131   0.08909699
9352.00   1.74491704   0.08755603
9354.00   2.05565572   0.09163871
9356.00   2.06463122   0.09152928
9358.00   1.85002828   0.08939983
9360.00   1.71481347   0.08840675
9362.00   1.59875035   0.08355217
9364.00   1.53490937   0.08560495
9366.00   1.58254862   0.09963070
9368.00   1.71555436   0.11913493
9370.00   1.74621797   0.14861628
9372.00   1.65897799   0.19334197
9374.00   1.71589911   0.21337989
9376.00   1.95480514   0.22532885
9378.00   2.11474395   0.22606009
9380.00   2.08844423   0.20982581
9382.00   1.95383739   0.17909732
9384.00   1.78567755   0.15447721
9386.00   1.45492792   0.12277281
9388.00   1.32444930   0.09904419
9390.00   1.34981632   0.08723313
9392.00   1.35233712   0.07963679
9394.00   1.29943013   0.07719686
9396.00   1.23286247   0.07977325
9398.00   1.17248237   0.08191157
9400.00   1.07103181   0.08658763
9402.00   1.12260365   0.08901593
9404.00   1.36835659   0.09064358
9406.00   1.50471151   0.09189451
9408.00   1.47379661   0.08987851
9410.00   1.44460821   0.09074637
9412.00   1.60418963   0.10287396
9414.00   1.91317010   0.12223405
9416.00   1.96716118   0.12708381
9418.00   1.83615303   0.12322814
9420.00   1.71802866   0.11963603
9422.00   1.53939593   0.11381526
9424.00   1.39565122   0.10756409
9426.00   1.36498368   0.10132910
9428.00   1.40586662   0.09485312
9430.00   1.42472124   0.09824231
9432.00   1.39168167   0.10791131
9434.00   1.51293182   0.12138896
9436.00   1.87047493   0.14321880
9438.00   2.10899258   0.15790203
9440.00   2.07392430   0.16394448
9442.00   1.90195572   0.16444674
9444.00   1.80887878   0.15696928
9446.00   1.66278422   0.13360351
9448.00   1.65711749   0.12096146
9450.00   1.79892778   0.11104145
9452.00   1.90282619   0.10811446
9454.00   1.93900192   0.11594716
9456.00   1.95425510   0.12757790
9458.00   1.98543096   0.13477315
9460.00   2.02177882   0.14306860
9462.00   2.04026794   0.14243898
9464.00   1.96694672   0.13014349
9466.00   2.04683828   0.12348188
9468.00   2.36254859   0.12163915
9470.00   2.68335533   0.12461322
9472.00   2.80896091   0.13467796
9474.00   2.83725095   0.15039225
9476.00   2.70169401   0.15951201
9478.00   2.24124146   0.17225336
9480.00   2.03795934   0.17120972
9482.00   2.08342743   0.15339689
9484.00   2.12732339   0.13106367
9486.00   2.03180742   0.11171677
9488.00   1.87583423   0.09091974
9490.00   1.76686442   0.07994100
9492.00   1.59988475   0.08153073
9494.00   1.59845793   0.08684070
9496.00   1.81801963   0.09648258
9498.00   1.94826686   0.11132953
9500.00   1.85458899   0.13560787
9502.00   1.67655122   0.15831004
9504.00   1.65681326   0.16012695
9506.00   1.73785818   0.14525089
9508.00   1.78186071   0.13343219
9510.00   1.88170457   0.10998946
9512.00   1.89041853   0.09462681
9514.00   1.74985611   0.09700446
9516.00   1.57181454   0.10707425
9518.00   1.50700784   0.11493261
9520.00   1.50805342   0.12672497
9522.00   1.48323786   0.12768605
9524.00   1.44783330   0.12033434
9526.00   1.44435513   0.11204767
9528.00   1.48948729   0.09908817
9530.00   1.53480840   0.08580619
9532.00   1.53449750   0.07996730
9534.00   1.50618076   0.08009440
9536.00   1.51100314   0.07962982
9538.00   1.50548041   0.08111178
9540.00   1.56322920   0.08361445
9542.00   1.67335486   0.08657939
9544.00   1.82509422   0.09148677
9546.00   2.05114555   0.09992231
9548.00   2.32028580   0.10974343
9550.00   2.40479636   0.11420188
9552.00   2.32077956   0.11480250
9554.00   2.28784037   0.11659310
9556.00   2.24689174   0.11553457
9558.00   2.18967748   0.11882885
9560.00   2.05274057   0.13021411
9562.00   1.93386710   0.14313169
9564.00   2.09530663   0.14794798
9566.00   2.48534441   0.14865606
9568.00   2.89364791   0.14752808
9570.00   3.53612232   0.14338593
9572.00   3.97130179   0.13732333
9574.00   4.14950752   0.12672640
9576.00   4.19228220   0.11549391
9578.00   4.17438698   0.11204089
9580.00   4.01552343   0.11520080
9582.00   4.04202700   0.11434687
9584.00   4.24303579   0.11300787
9586.00   4.32830334   0.11078198
9588.00   4.23769283   0.10634476
9590.00   4.19955921   0.10263325
9592.00   4.42507029   0.10282987
9594.00   4.82988167   0.10569144
9596.00   4.98139238   0.10600940
9598.00   4.93293095   0.10407779
9600.00   4.98824406   0.10472309
9602.00   5.21781254   0.10768128
9604.00   5.26821804   0.11072334
9606.00   4.90437365   0.11321958
9608.00   4.31174278   0.11550704
9610.00   4.01210356   0.11669508
9612.00   3.89627838   0.11780316
9614.00   3.69169569   0.11659553
9616.00   3.48894334   0.11227150
9618.00   3.26014066   0.10859230
9620.00   2.97236872   0.10625245
9622.00   2.67678380   0.10480797
9624.00   2.47939086   0.10507131
9626.00   2.33085251   0.10894764
9628.00   2.26647949   0.10625697
9630.00   2.33931732   0.09590405
9632.00   2.36068439   0.08884135
9634.00   2.30538559   0.08704697
9636.00   2.24445772   0.08719675
9638.00   2.25182843   0.08661012
9640.00   2.31533575   0.08669109
9642.00   2.27963257   0.08567839
9644.00   2.16972375   0.08345059
9646.00   2.06507516   0.08207319
9648.00   1.93694222   0.08055854
9650.00   1.82450712   0.08057891
9652.00   1.76441801   0.08366399
9654.00   1.73907709   0.08882406
9656.00   1.70009661   0.09348149
9658.00   1.64659953   0.10121403
9660.00   1.63591695   0.10296834
9662.00   1.67378247   0.09807459
9664.00   1.70964968   0.09444781
9666.00   1.72147012   0.09619487
9668.00   1.72596478   0.10018187
9670.00   1.74674630   0.10180661
9672.00   1.83318806   0.10224637
9674.00   1.77759361   0.10354798
9676.00   1.60608482   0.10457425
9678.00   1.41906238   0.10676511
9680.00   1.17234063   0.11203972
9682.00   0.95168138   0.11683642
9684.00   0.98322380   0.11480867
9686.00   1.28171015   0.10610723
9688.00   1.32713091   0.10150529
9690.00   1.20724475   0.09578108
9692.00   1.14478147   0.09497449
9694.00   1.16860366   0.10024612
9696.00   1.18333912   0.10790992
9698.00   1.08039486   0.11643462
9700.00   0.87178427   0.12770128
9702.00   0.89314520   0.12701909
9704.00   1.13070250   0.11266756
9706.00   1.28062558   0.10466812
9708.00   1.40853107   0.09998450
9710.00   1.48183978   0.09992579
9712.00   1.45203125   0.10760940
9714.00   1.34524679   0.12008794
9716.00   1.29760659   0.12490463
9718.00   1.27040923   0.12619081
9720.00   1.23486197   0.12680599
9722.00   1.14626944   0.12653996
9724.00   1.14227080   0.12411957
9726.00   1.34153163   0.11757386
9728.00   1.61249602   0.10857764
9730.00   1.57943618   0.10475245
9732.00   1.25894320   0.10467643
9734.00   1.11772728   0.10471675
9736.00   0.97526026   0.10731873
9738.00   0.94568443   0.10862946
9740.00   1.07904279   0.10752226
9742.00   1.28819954   0.10597844
9744.00   1.46101236   0.10684394
9746.00   1.69550705   0.10970902
9748.00   1.70884120   0.11036288
9750.00   1.48828042   0.11141565
9752.00   1.34145486   0.10907269
9754.00   1.24621320   0.10015277
9756.00   1.18820465   0.09110582
9758.00   1.19084930   0.09132710
9760.00   1.25359833   0.09815910
9762.00   1.26012313   0.09751343
9764.00   1.21813178   0.09134912
9766.00   1.22600627   0.08803886
9768.00   1.28302968   0.08652797
9770.00   1.34503853   0.08599386
9772.00   1.39739668   0.08637156
9774.00   1.44679928   0.08765877
9776.00   1.44604707   0.08861041
9778.00   1.38988900   0.08706524
9780.00   1.35132980   0.09164512
9782.00   1.32417893   0.09925212
9784.00   1.27231407   0.10980961
9786.00   1.16485751   0.12262199
9788.00   1.04030955   0.13706580
9790.00   0.99586737   0.15363126
9792.00   0.99847287   0.17870907
9794.00   1.03284693   0.18313068
9796.00   1.13452208   0.17193361
9798.00   1.21453285   0.16011372
9800.00   1.26500058   0.14674512
9802.00   1.30140483   0.13292049
9804.00   1.33183670   0.12654443
9806.00   1.35942364   0.12740275
9808.00   1.34523666   0.12420367
9810.00   1.29063678   0.11971983
9812.00   1.22930849   0.11629557
9814.00   1.13920879   0.11417766
9816.00   1.06131542   0.11244178
9818.00   1.03857315   0.11047078
9820.00   1.05365026   0.10861021
9822.00   1.06090975   0.10607737
9824.00   1.08229756   0.10241935
9826.00   1.09660435   0.09977444
9828.00   1.10305297   0.09783626
9830.00   1.11460710   0.09643678
9832.00   1.15387952   0.09551096
9834.00   1.20206070   0.09513448
9836.00   1.15453875   0.09550035
9838.00   0.95368910   0.09597587
9840.00   0.91911227   0.09841334
9842.00   1.02977645   0.10290018
9844.00   1.09612584   0.10730557
9846.00   1.06888092   0.11194316
9848.00   0.99588132   0.11606078
9850.00   0.90311217   0.11692424
9852.00   0.70488089   0.11521383
9854.00   0.72365761   0.11300191
9856.00   0.95029986   0.10772064
9858.00   1.12336838   0.10465001
9860.00   1.22525716   0.10239299
9862.00   1.30474901   0.10389879
9864.00   1.39439046   0.11397880
9866.00   1.49946868   0.12960112
9868.00   1.49075937   0.14454709
9870.00   1.37114716   0.16622213
9872.00   1.25999069   0.17628323
9874.00   1.08992982   0.17748712
9876.00   0.97952271   0.17355393
9878.00   1.06258953   0.16465379
9880.00   1.28700459   0.14904012
9882.00   1.34360254   0.13927273
9884.00   1.28917778   0.13006490
9886.00   1.28039253   0.12671272
9888.00   1.25655484   0.13049157
9890.00   1.28354800   0.13621180
9892.00   1.43103409   0.14323361
9894.00   1.63788116   0.15100284
9896.00   1.67451620   0.15204582
9898.00   1.58343768   0.14735983
9900.00   1.50367534   0.14343859
9902.00   1.39888418   0.13488451
9904.00   1.25596976   0.13081661
9906.00   1.02855825   0.13258912
9908.00   0.79202861   0.13961478
9910.00   0.71689278   0.15466958
9912.00   0.74964947   0.18023592
9914.00   0.82875156   0.18938863
9916.00   1.05064690   0.19093968
9918.00   1.18695056   0.18898031
9920.00   1.22448146   0.18145950
9922.00   1.21381366   0.17149144
9924.00   1.16680455   0.16447748
9926.00   1.04304516   0.15863183
9928.00   1.11640680   0.15072705
9930.00   1.46984684   0.13579901
9932.00   1.56731880   0.13169630
9934.00   1.38640654   0.13459796
9936.00   1.17450166   0.14845033
9938.00   1.04219949   0.17563447
9940.00   0.92728782   0.20920207
9942.00   1.13916850   0.23581317
9944.00   1.97514153   0.27326214
9946.00   2.11407042   0.28221786
9948.00   1.73352015   0.26349080
9950.00   1.19342387   0.24526642
9952.00   0.45439005   0.24097420
9954.00   -0.36945358   0.24241908
9956.00   -0.43913591   0.24333958
9958.00   0.21003474   0.24953893
9960.00   0.59890121   0.24838281
9962.00   1.15762210   0.24293430
9964.00   1.49817836   0.23487373
9966.00   1.49092126   0.22250655
9968.00   1.33071005   0.20791695
9970.00   1.29747856   0.19754447
9972.00   1.32868254   0.18954809
9974.00   1.17942727   0.18268248
9976.00   0.75161147   0.17901944
9978.00   0.56637138   0.17442319
9980.00   0.69084454   0.16874990
9982.00   0.90202737   0.16276008
9984.00   1.02099311   0.15654606
9986.00   1.14155889   0.14955096
9988.00   1.13672388   0.14616188
9990.00   0.97232813   0.14573970
9992.00   0.88733292   0.14653707
9994.00   0.83208901   0.14879212
9996.00   0.82726848   0.15254499
9998.00   0.92132640   0.15718320
10000.00   1.08773518   0.16290608
10002.00   1.12019873   0.17309584
10004.00   1.01414979   0.18127826
10006.00   1.02209008   0.20211022
10008.00   1.13651276   0.23620890
10010.00   1.20725453   0.26261166
10012.00   1.11249530   0.28010005
10014.00   0.98667765   0.29174399
10016.00   1.21448016   0.29162440
10018.00   1.90563941   0.27723256
10020.00   2.10295844   0.26701218
10022.00   1.98127246   0.25210464
10024.00   1.86234725   0.24104877
10026.00   1.70873320   0.23689531
10028.00   1.60228086   0.23582318
10030.00   1.82136321   0.23343351
10032.00   2.44901276   0.23397602
10034.00   2.41968226   0.22409374
10036.00   1.70034337   0.19653948
10038.00   1.40532172   0.18090548
10040.00   1.58015859   0.18296805
10042.00   1.89587677   0.19012435
10044.00   2.15799785   0.19324352
10046.00   2.48627543   0.19688825
10048.00   2.53379822   0.19702075
10050.00   2.20400882   0.19020964
10052.00   2.17053652   0.19166574
10054.00   2.46962881   0.19867766
10056.00   2.69661999   0.21008162
10058.00   2.55279064   0.22858006
10060.00   2.22216392   0.25033495
10062.00   2.35329795   0.25510663
10064.00   2.85485649   0.23990367
10066.00   3.26819038   0.24219190
10068.00   3.84490156   0.26048771
10070.00   4.24038792   0.27045131
10072.00   4.30488539   0.25763527
10074.00   4.19341755   0.23935762
10076.00   4.16308355   0.26360667
10078.00   4.07163668   0.32520509
10080.00   4.09784269   0.34506279
10082.00   4.15910292   0.35180476
10084.00   4.33698559   0.34592009
10086.00   4.73263884   0.31887084
10088.00   5.15163469   0.28204441
10090.00   5.26703787   0.26202163
10092.00   5.09916449   0.25121826
10094.00   5.34410572   0.24450295
10096.00   6.02638388   0.24701180
10098.00   6.39428711   0.25039288
10100.00   6.47360229   0.25743684
10102.00   6.40028715   0.26372072
10104.00   6.20552444   0.26501143
10106.00   5.85152864   0.26335248
10108.00   5.68973732   0.26022011
10110.00   5.59563971   0.24754289
10112.00   5.58965921   0.24926935
10114.00   5.84119463   0.26499021
10116.00   5.91372061   0.28179914
10118.00   5.50696516   0.29518479
10120.00   4.82670498   0.30795938
10122.00   4.44712257   0.31897691
10124.00   4.18510628   0.33460560
10126.00   3.96562266   0.33557940
10128.00   3.72972941   0.32336542
10130.00   3.69638038   0.30890694
10132.00   4.06316710   0.29189777
10134.00   4.55493593   0.27394289
10136.00   4.54575348   0.26817912
10138.00   4.22993851   0.27490550
10140.00   3.80924177   0.27497461
10142.00   2.99502134   0.26901755
10144.00   2.44868898   0.27232227
10146.00   2.19572926   0.29106387
10148.00   2.14991617   0.31007558
10150.00   2.37719727   0.31388143
10152.00   3.02317929   0.30874103
10154.00   2.91202044   0.30267677
10156.00   1.99815309   0.28782010
10158.00   1.58967566   0.27933535
10160.00   1.62584794   0.27009177
10162.00   1.84022248   0.27306321
10164.00   2.11012697   0.30151513
10166.00   2.50074077   0.34476563
10168.00   2.89289713   0.37348527
10170.00   3.69281530   0.41137803
10172.00   3.71503782   0.41913295
10174.00   2.91313291   0.39741570
10176.00   2.08425713   0.36988452
10178.00   1.47804022   0.34333009
10180.00   0.97245562   0.31453738
10182.00   0.95165139   0.30851880
10184.00   1.65988004   0.32106996
10186.00   1.78728259   0.34044844
10188.00   1.48378718   0.38739669
10190.00   1.40604603   0.40694082
10192.00   1.83307338   0.38367754
10194.00   2.38052535   0.33977017
10196.00   2.41515255   0.31808010
10198.00   2.13580704   0.29660276
10200.00   1.77117372   0.30912909
10202.00   0.78974164   0.36553371
10204.00   0.55127174   0.39441878
10206.00   1.45751357   0.39634135
10208.00   2.53847885   0.38978261
10210.00   2.74467921   0.38825962
10212.00   2.47510839   0.38565144
10214.00   2.18899918   0.38355833
10216.00   1.70242763   0.38521293
10218.00   1.12300134   0.37891179
10220.00   0.10840251   0.35933173
10222.00   -0.57098830   0.34159985
10224.00   -0.23021652   0.33985272
10226.00   0.80576831   0.34800261
10228.00   1.34601128   0.34814921
10230.00   1.91126132   0.34932292
10232.00   2.13908458   0.34214419
10234.00   2.01779127   0.32389307
10236.00   1.80384374   0.30542380
10238.00   1.54782748   0.29119515
10240.00   1.23841333   0.27894521
10242.00   1.08064699   0.27020222
10244.00   1.05463290   0.26531383
10246.00   0.96109855   0.26279405
10248.00   0.78308439   0.26351604
10250.00   0.73501766   0.26663166
10252.00   0.94005954   0.27274168
10254.00   1.19984198   0.28042597
10256.00   1.15653515   0.28745010
10258.00   0.82087398   0.29724073
10260.00   0.85031676   0.29717869
10262.00   1.24426222   0.28507459
10264.00   1.39123690   0.27916363
10266.00   1.25511169   0.27647570
10268.00   1.00748777   0.28127232
10270.00   0.71743006   0.30177379
10272.00   0.28364620   0.33441746
10274.00   0.35804668   0.35288313
10276.00   0.96624815   0.35330790
10278.00   1.35263193   0.37922278
10280.00   1.65697277   0.42842710
10282.00   1.85623312   0.47548813
10284.00   1.79528403   0.51474881
10286.00   1.56051326   0.55087322
10288.00   2.01085997   0.56164646
10290.00   3.74582720   0.55198246
10292.00   3.79612923   0.53743076
10294.00   1.99679327   0.50549167
10296.00   0.78759634   0.47496819
10298.00   1.24844277   0.45503739
10300.00   2.40013552   0.43969360
10302.00   2.56749058   0.42046204
10304.00   2.06314301   0.38863683
10306.00   2.07221413   0.38862410
10308.00   2.39834523   0.42597222
10310.00   2.58562899   0.44613975
10312.00   2.59590626   0.44509932
10314.00   2.48135829   0.43290862
10316.00   2.17525697   0.41224134
10318.00   1.53948343   0.37268931
10320.00   1.47215605   0.35300270
10322.00   2.18861151   0.34748971
10324.00   2.18309665   0.34283513
10326.00   1.06643367   0.33831388
10328.00   0.00389218   0.33861750
10330.00   0.11280079   0.34866679
10332.00   0.97880059   0.36703578
10334.00   1.45200491   0.37591568
10336.00   1.90574324   0.37873682
10338.00   2.36859822   0.38471669
10340.00   3.09083009   0.39258564
10342.00   3.44160056   0.40091830
10344.00   2.86013460   0.40711159
10346.00   1.70103109   0.41309264
10348.00   1.45125079   0.43239078
10350.00   2.06225705   0.46063274
10352.00   1.94546890   0.49103370
10354.00   1.16678965   0.54608482
10356.00   0.70060778   0.56696862
10358.00   0.92592704   0.52559263
10360.00   1.46195447   0.44933045
10362.00   1.73271692   0.42571098
10364.00   1.99182808   0.43510598
10366.00   2.09935737   0.44722587
10368.00   2.25134230   0.46224219
10370.00   2.00538826   0.50213790
10372.00   1.03201902   0.58970994
10374.00   -0.03346946   0.66206241
10376.00   -0.25592345   0.65053481
10378.00   0.07190301   0.56647199
10380.00   0.36588082   0.52198702
10382.00   1.01565385   0.47748816
10384.00   1.40013313   0.45019338
10386.00   1.60454345   0.45143339
10388.00   1.59782588   0.45933008
10390.00   1.13366520   0.45221692
10392.00   0.21644139   0.43793312
10394.00   0.57717019   0.44993132
10396.00   2.41637731   0.49990362
10398.00   3.22074556   0.50896013
10400.00   3.49364734   0.48211575
10402.00   3.27953982   0.45029294
10404.00   2.25008535   0.42606595
10406.00   0.70102447   0.40371668
10408.00   0.51782763   0.40461841
10410.00   1.54177487   0.42617536
10412.00   2.03684783   0.45142868
10414.00   2.69089413   0.49522495
10416.00   2.97088981   0.52434939
10418.00   2.54574966   0.52736938
10420.00   1.85064697   0.52258426
10422.00   1.80814528   0.54243320
10424.00   2.40908337   0.58246577
10426.00   2.16999316   0.60098445
10428.00   0.86200345   0.61868149
10430.00   0.47932419   0.61611205
10432.00   1.64273143   0.58417332
10434.00   3.00491166   0.53837913
10436.00   2.93755388   0.50122052
10438.00   1.92729449   0.46116921
10440.00   1.38184488   0.43080011
10442.00   0.70694232   0.40230119
10444.00   0.33752799   0.39392409
10446.00   0.14522259   0.41288581
10448.00   0.29101065   0.43833762
10450.00   1.10512495   0.46114010
10452.00   2.49379015   0.48697054
10454.00   2.84414387   0.48096275
10456.00   2.47368145   0.43244359
10458.00   2.13219523   0.41059476
10460.00   1.32763779   0.39955476
10462.00   0.89052409   0.40659708
10464.00   1.40544498   0.44567230
10466.00   2.40630698   0.49688250
10468.00   2.57984090   0.50280881
10470.00   2.12835288   0.47110599
10472.00   1.98932159   0.45431599
10474.00   2.03478479   0.43270990
10476.00   1.85169017   0.41748473
10478.00   1.09475398   0.41548833
10480.00   0.28895757   0.41834229
10482.00   0.55205673   0.41017684
10484.00   1.94382262   0.39317495
10486.00   2.17340207   0.38404241
10488.00   1.62428010   0.37646621
10490.00   1.25739551   0.37474221
10492.00   1.04397213   0.38122568
10494.00   0.94287980   0.39055124
10496.00   1.08514142   0.39779946
10498.00   1.50628924   0.40643409
10500.00   1.48067677   0.40625137
10502.00   0.95710027   0.38833028
10504.00   0.83126855   0.39080584
10506.00   1.15442979   0.42245147
10508.00   1.47838199   0.44597065
10510.00   1.55788457   0.43715277
10512.00   1.52152264   0.40758589
10514.00   1.15739441   0.39614770
10516.00   -0.06717060   0.38933310
10518.00   -0.16976991   0.38986421
10520.00   0.94540209   0.40324908
10522.00   1.79021370   0.41311672
10524.00   1.67128062   0.40996256
10526.00   1.14167750   0.40262276
10528.00   1.12624705   0.41417488
10530.00   1.39677227   0.44785213
10532.00   1.55009377   0.45753047
10534.00   1.86321962   0.45808920
10536.00   1.89589703   0.44916117
10538.00   1.39068675   0.42274585
10540.00   0.76379043   0.38963890
10542.00   0.73173314   0.37895533
10544.00   1.10886967   0.38400835
10546.00   1.39187407   0.38910413
10548.00   1.92788160   0.40413997
10550.00   2.14996791   0.41330960
10552.00   2.04743004   0.41786540
10554.00   1.73146200   0.41843125
10556.00   1.16726327   0.41239533
10558.00   0.24546975   0.39860055
10560.00   0.12849085   0.39617249
10562.00   0.77305156   0.40152657
10564.00   1.11136329   0.40661937
10566.00   1.26414871   0.41325855
10568.00   1.38559020   0.42026576
10570.00   1.57934117   0.42747045
10572.00   1.78872871   0.43491086
10574.00   1.68829048   0.43716118
10576.00   1.12654626   0.43281379
10578.00   0.97889662   0.43307221
10580.00   1.20737422   0.43106991
10582.00   1.32109213   0.43742228
10584.00   1.04688311   0.46262607
10586.00   0.65856647   0.49231726
10588.00   0.78268504   0.49168703
10590.00   1.44764256   0.46174952
10592.00   1.65909576   0.44922432
10594.00   1.74608624   0.44267413
10596.00   1.62390041   0.43589890
10598.00   1.11931956   0.42642930
10600.00   0.54803580   0.41846895
10602.00   0.45871091   0.41896865
10604.00   0.67821485   0.42825934
10606.00   0.92946970   0.42938620
10608.00   1.56352711   0.42557922
10610.00   1.78430068   0.42334554
10612.00   1.46650040   0.42191878
10614.00   1.05073690   0.42167142
10616.00   0.88710225   0.42313662
10618.00   0.80303192   0.42568764
10620.00   0.92967933   0.43349230
10622.00   1.23143911   0.44892687
10624.00   1.68282712   0.45901725
10626.00   2.65877533   0.47200125
10628.00   3.24585223   0.47425866
10630.00   2.73301625   0.45180598
10632.00   1.55845356   0.41082048
10634.00   1.18801904   0.39701235
10636.00   1.42631280   0.40427768
10638.00   1.19848073   0.40580058
10640.00   0.60626549   0.40648568
10642.00   0.15631245   0.41260561
10644.00   0.00384294   0.43283078
10646.00   0.01078875   0.45415834
10648.00   0.05074357   0.44429794
10650.00   0.07824775   0.39579105
10652.00   0.46849281   0.38163552
10654.00   1.43877935   0.39246830
10656.00   2.03434706   0.39710015
10658.00   2.19206071   0.39332539
10660.00   2.04033017   0.38591960
10662.00   1.49169326   0.37505519
10664.00   0.30999625   0.35699397
10666.00   0.14097443   0.35124406
10668.00   0.85753149   0.35612562
10670.00   1.24591613   0.35921484
10672.00   1.30743277   0.36266422
10674.00   1.35531068   0.36488852
10676.00   1.65031278   0.36249137
10678.00   2.11364508   0.35625502
10680.00   2.04760194   0.35827962
10682.00   1.49389911   0.36723042
10684.00   1.07235932   0.37398764
10686.00   0.52003974   0.38658905
10688.00   0.17465651   0.38958156
10690.00   0.29310176   0.36931968
10692.00   0.69624186   0.33320874
10694.00   0.85427254   0.32373613
10696.00   0.88910490   0.33779344
10698.00   1.02869642   0.34061864
10700.00   1.33085883   0.34353667
10702.00   1.46079040   0.34275943
10704.00   1.20790565   0.33493838
10706.00   0.85133761   0.32435796
10708.00   0.99778342   0.32191002
10710.00   1.72035289   0.32713476
10712.00   1.70287168   0.32479647
10714.00   0.97362685   0.31615755
10716.00   0.62763590   0.31083572
10718.00   0.83998579   0.30967191
10720.00   1.20008349   0.31083089
10722.00   1.28741503   0.31384352
10724.00   1.20559347   0.31997672
10726.00   1.47004712   0.32147968
10728.00   2.16710544   0.32222128
10730.00   2.51810050   0.31811464
10732.00   2.60691619   0.30685622
10734.00   2.48351789   0.29418451
10736.00   2.06365514   0.28458747
10738.00   1.35875309   0.27592352
10740.00   1.08579242   0.27128434
10742.00   1.10015297   0.26903686
10744.00   1.07953310   0.27189174
10746.00   1.10089993   0.28406969
10748.00   1.15217173   0.29248115
10750.00   1.26153350   0.29286927
10752.00   1.39420915   0.28796998
10754.00   1.33738482   0.27499682
10756.00   1.01648307   0.23945035
10758.00   0.95101458   0.22828630
10760.00   0.96656466   0.23713611
10762.00   1.12087071   0.24558958
10764.00   1.56041682   0.25193503
10766.00   2.04802179   0.25702438
10768.00   2.04476452   0.25499964
10770.00   1.63356209   0.24496463
10772.00   1.40737569   0.24117982
10774.00   1.16394031   0.24428000
10776.00   0.95849228   0.23975994
10778.00   0.72536010   0.22151484
10780.00   0.59444654   0.20102136
10782.00   0.78358632   0.19647209
10784.00   1.28565001   0.20423649
10786.00   1.40948868   0.20144039
10788.00   1.18342221   0.18997201
10790.00   1.22056496   0.18646443
10792.00   1.58482301   0.19350663
10794.00   1.90040231   0.19942114
10796.00   1.88913238   0.19461606
10798.00   1.68588197   0.18320252
10800.00   1.65570128   0.18994771
10802.00   1.64311683   0.21709757
10804.00   1.74547017   0.22517914
10806.00   2.18967104   0.22377980
10808.00   2.32322407   0.21617281
10810.00   1.72817910   0.19846836
10812.00   0.78330284   0.17273057
10814.00   0.46183079   0.16400115
10816.00   0.54718155   0.17367887
10818.00   0.52946991   0.17151782
10820.00   0.60511637   0.16247994
10822.00   0.64961559   0.15742297
10824.00   0.62144911   0.16085708
10826.00   0.58358157   0.16634859
10828.00   0.61543995   0.16441216
10830.00   0.64814615   0.15445668
10832.00   0.86636293   0.15779074
10834.00   1.47260427   0.17809467
10836.00   1.68954253   0.18260656
10838.00   1.32493436   0.16658825
10840.00   0.91104060   0.14487396
10842.00   1.01883233   0.13679697
10844.00   1.48519778   0.13660838
10846.00   1.44325984   0.13528177
10848.00   1.00209677   0.14033498
10850.00   0.71648020   0.13772313
10852.00   0.38830876   0.12269007
10854.00   0.26442990   0.11027031
10856.00   0.59287363   0.11603250
10858.00   1.23868930   0.13133930
10860.00   1.61695206   0.13462977
10862.00   2.05964971   0.13086125
10864.00   2.14385748   0.13054787
10866.00   1.72708154   0.13355690
10868.00   1.47318351   0.13314986
10870.00   1.70534754   0.12504251
10872.00   2.11701107   0.11258261
10874.00   2.11132956   0.10734908
