# File created by shivutils (I.Shivvers)
# wl(A)   flm    er(optional)
3432.00   4.26353455   0.10978557
3434.00   4.46468306   0.11188098
3436.00   4.42795753   0.11093204
3438.00   4.52644634   0.11281144
3440.00   4.36614466   0.11055147
3442.00   4.48913622   0.11246611
3444.00   4.65162420   0.11426857
3446.00   4.73931265   0.11562365
3448.00   4.72359848   0.11544429
3450.00   4.74412632   0.11640887
3452.00   4.83924675   0.11905816
3454.00   4.67391920   0.11811535
3456.00   4.51675272   0.11581865
3458.00   4.48973513   0.11666026
3460.00   4.88382673   0.12010105
3462.00   4.72220135   0.11969754
3464.00   4.84637403   0.12015623
3466.00   4.81685591   0.12059383
3468.00   5.07314730   0.12328801
3470.00   4.84208870   0.12124521
3472.00   4.74878359   0.12023084
3474.00   4.65782976   0.12018988
3476.00   4.71246481   0.12055598
3478.00   4.88608837   0.12322026
3480.00   4.75372267   0.12273897
3482.00   4.75663376   0.12318929
3484.00   4.82991838   0.12420145
3486.00   4.83212805   0.12365804
3488.00   4.86486435   0.12305549
3490.00   4.75276089   0.12110056
3492.00   4.65063143   0.12026144
3494.00   4.81039095   0.12177272
3496.00   4.77094269   0.12135211
3498.00   4.76826239   0.12118760
3500.00   4.71751165   0.12018554
3502.00   4.73072767   0.12058015
3504.00   4.67301512   0.11930209
3506.00   4.86156940   0.12123808
3508.00   4.58129835   0.11890125
3510.00   4.70601654   0.11913458
3512.00   4.62506390   0.11784486
3514.00   4.74403715   0.11896404
3516.00   4.55989933   0.11671088
3518.00   4.62408972   0.11703109
3520.00   4.72840929   0.11745181
3522.00   4.56554079   0.11538449
3524.00   4.55979776   0.11466788
3526.00   4.63935518   0.11545473
3528.00   4.81581926   0.11743126
3530.00   4.70219851   0.11565259
3532.00   4.71175909   0.11525388
3534.00   4.82304811   0.11623951
3536.00   4.82582855   0.11549193
3538.00   4.85939550   0.11579723
3540.00   4.85790205   0.11578351
3542.00   4.72531843   0.11512171
3544.00   4.69107628   0.11437965
3546.00   4.69436216   0.11445972
3548.00   4.72472811   0.11411805
3550.00   4.93364096   0.11591338
3552.00   4.86764479   0.11440402
3554.00   4.94015646   0.11522119
3556.00   4.72484779   0.11225358
3558.00   4.87707901   0.11323331
3560.00   5.03435564   0.11392310
3562.00   4.85006618   0.11107295
3564.00   4.63306141   0.10862105
3566.00   4.85667515   0.11041864
3568.00   4.78382254   0.10898031
3570.00   4.83464146   0.10915838
3572.00   4.95292330   0.11014247
3574.00   4.83736944   0.10911245
3576.00   4.84201956   0.10786548
3578.00   4.76101446   0.10663283
3580.00   4.69773245   0.10534117
3582.00   4.81242085   0.10565954
3584.00   4.63865852   0.10274022
3586.00   4.70362759   0.10281443
3588.00   4.66806459   0.10302151
3590.00   4.78700399   0.10344028
3592.00   4.47161961   0.10007041
3594.00   4.79288054   0.10203370
3596.00   4.55314445   0.09962043
3598.00   4.62967539   0.09966812
3600.00   4.70210028   0.09955143
3602.00   4.37642097   0.09608116
3604.00   4.38593245   0.09549681
3606.00   4.54644346   0.09602023
3608.00   4.61818981   0.09615099
3610.00   4.37688732   0.09385351
3612.00   4.46436548   0.09491694
3614.00   4.49564219   0.09575991
3616.00   4.60851717   0.09574811
3618.00   4.60692453   0.09429990
3620.00   4.48198223   0.09310842
3622.00   4.46825266   0.09358341
3624.00   4.54705715   0.09232396
3626.00   4.73834324   0.09322903
3628.00   4.58379793   0.09248970
3630.00   4.49686766   0.09194699
3632.00   4.60750151   0.09241462
3634.00   4.49652338   0.09128829
3636.00   4.69137335   0.09220453
3638.00   4.35751629   0.08874731
3640.00   4.48145247   0.08973894
3642.00   4.50858450   0.09034625
3644.00   4.48092175   0.08998825
3646.00   4.23069620   0.08906338
3648.00   4.63120651   0.09867712
3650.00   4.69599056   0.10445846
3652.00   4.46474504   0.09927563
3654.00   4.45558405   0.09517810
3656.00   4.39925671   0.09222369
3658.00   4.39128685   0.08763065
3660.00   4.49272728   0.08797114
3662.00   4.63169098   0.09181308
3664.00   4.44079113   0.08988611
3666.00   4.51653671   0.08614965
3668.00   4.62877178   0.08495051
3670.00   4.55794477   0.08376185
3672.00   4.57885647   0.08363731
3674.00   4.49030828   0.08257660
3676.00   4.66318130   0.08356805
3678.00   4.78803682   0.08343966
3680.00   4.66314268   0.08279435
3682.00   4.77875662   0.08337573
3684.00   4.74025202   0.08236241
3686.00   4.81045914   0.08253674
3688.00   4.90784216   0.08272193
3690.00   5.01682472   0.08360171
3692.00   4.99470139   0.08306642
3694.00   5.15466785   0.08396064
3696.00   5.51219225   0.08575124
3698.00   5.34213352   0.08481366
3700.00   5.50277710   0.08543994
3702.00   5.28870392   0.08374244
3704.00   5.31238365   0.08336124
3706.00   5.41866589   0.08386341
3708.00   5.27053118   0.08247782
3710.00   5.43099546   0.08306678
3712.00   5.48095369   0.08320092
3714.00   5.49988222   0.08292738
3716.00   5.51795197   0.08286402
3718.00   5.60605001   0.08312669
3720.00   5.76091337   0.08390085
3722.00   5.83896971   0.08383702
3724.00   5.70971012   0.08263132
3726.00   5.86158180   0.08328103
3728.00   5.52614069   0.08124948
3730.00   5.81105614   0.08269366
3732.00   5.67839193   0.08150803
3734.00   5.65682411   0.08100841
3736.00   5.70909882   0.08130136
3738.00   5.62706184   0.08067922
3740.00   5.71378660   0.08118633
3742.00   5.80362606   0.08149648
3744.00   5.66225719   0.08031730
3746.00   5.67397451   0.07970942
3748.00   5.57610941   0.07870702
3750.00   5.61822367   0.07870869
3752.00   5.65643597   0.07899683
3754.00   5.47153568   0.07768847
3756.00   5.57585096   0.07789205
3758.00   5.48514128   0.07716081
3760.00   5.50981712   0.07713079
3762.00   5.60712051   0.07699522
3764.00   5.63927555   0.07733446
3766.00   5.55524731   0.07664925
3768.00   5.39422894   0.07560186
3770.00   5.41098595   0.07581116
3772.00   5.42560530   0.07566556
3774.00   5.11647224   0.07337800
3776.00   5.13535690   0.07336190
3778.00   5.17562628   0.07376672
3780.00   5.28119278   0.07369844
3782.00   5.09205437   0.07260747
3784.00   4.92187405   0.07151844
3786.00   5.04773998   0.07207032
3788.00   4.88338947   0.07088905
3790.00   4.84431410   0.07095194
3792.00   4.82291460   0.07056855
3794.00   4.88329601   0.07030971
3796.00   4.82887840   0.06970093
3798.00   4.74800062   0.06913040
3800.00   4.92379951   0.07003777
3802.00   4.72585821   0.06900648
3804.00   4.73921633   0.06892854
3806.00   4.68979979   0.06792804
3808.00   4.66606379   0.06778876
3810.00   4.78772402   0.06864174
3812.00   4.60016727   0.06724281
3814.00   4.64129019   0.06715723
3816.00   4.42631102   0.06577343
3818.00   4.51475191   0.06615731
3820.00   4.51300478   0.06585886
3822.00   4.36304665   0.06555435
3824.00   4.46876335   0.06612384
3826.00   4.54211903   0.06588676
3828.00   4.56099415   0.06634309
3830.00   4.53439045   0.06618112
3832.00   4.49291134   0.06552637
3834.00   4.50894785   0.06537069
3836.00   4.52477026   0.06543475
3838.00   4.51681042   0.06513578
3840.00   4.33399868   0.06362624
3842.00   4.35874605   0.06366562
3844.00   4.44242001   0.06370575
3846.00   4.40392637   0.06326448
3848.00   4.37556982   0.06288482
3850.00   4.34013796   0.06265115
3852.00   4.42537928   0.06252446
3854.00   4.41858196   0.06260704
3856.00   4.28966331   0.06154640
3858.00   4.41850853   0.06220661
3860.00   4.51106834   0.06272776
3862.00   4.46489477   0.06251788
3864.00   4.45689583   0.06251143
3866.00   4.51783133   0.06261192
3868.00   4.62516832   0.06294771
3870.00   4.54569244   0.06249166
3872.00   4.64113474   0.06325100
3874.00   4.74923706   0.06424142
3876.00   4.73962927   0.06413940
3878.00   4.80976582   0.06392381
3880.00   4.75858545   0.06335188
3882.00   4.93329477   0.06434445
3884.00   4.93802595   0.06405728
3886.00   4.89608717   0.06379664
3888.00   5.07408237   0.06465109
3890.00   5.12874317   0.06486078
3892.00   5.08067465   0.06440530
3894.00   5.18362570   0.06491780
3896.00   5.20679998   0.06486562
3898.00   5.27322006   0.06693202
3900.00   5.29882669   0.06494962
3902.00   5.34070826   0.06520442
3904.00   5.32692623   0.06540792
3906.00   5.34426928   0.06677343
3908.00   5.42146921   0.06787646
3910.00   5.35294056   0.06762650
3912.00   5.49035454   0.06791438
3914.00   5.46360779   0.06708262
3916.00   5.61243486   0.06658959
3918.00   5.72152185   0.06643537
3920.00   5.67130184   0.06586855
3922.00   5.89594555   0.06662200
3924.00   6.02669287   0.06695826
3926.00   5.94823170   0.06640631
3928.00   6.04286957   0.06670613
3930.00   6.05953741   0.06673449
3932.00   5.80175734   0.06581671
3934.00   5.65881205   0.06527609
3936.00   5.88775778   0.06581236
3938.00   6.04227686   0.06617652
3940.00   6.06647635   0.06628173
3942.00   6.15068913   0.06721362
3944.00   6.18023252   0.06769940
3946.00   6.24128819   0.06756675
3948.00   5.98831367   0.06589238
3950.00   6.01222563   0.06571276
3952.00   6.08730268   0.06586570
3954.00   6.27807426   0.06654789
3956.00   6.31039190   0.06674796
3958.00   6.37386608   0.06689260
3960.00   6.27080965   0.06709629
3962.00   6.42276335   0.06770317
3964.00   6.33275509   0.06651437
3966.00   6.36520338   0.06608592
3968.00   6.22034264   0.06522524
3970.00   6.24601984   0.06523304
3972.00   6.28307199   0.06524116
3974.00   6.44730377   0.06600507
3976.00   6.35854959   0.06527785
3978.00   6.26461792   0.06487671
3980.00   6.23562288   0.06463057
3982.00   6.27201080   0.06466527
3984.00   6.04053068   0.06339901
3986.00   6.12432337   0.06352443
3988.00   6.22216415   0.06382579
3990.00   6.18886852   0.06373393
3992.00   6.20526075   0.06354169
3994.00   6.08146429   0.06330521
3996.00   5.98698616   0.06321111
3998.00   6.07336855   0.06343231
4000.00   6.09484148   0.06273274
4002.00   5.95248699   0.06166315
4004.00   5.83038950   0.06089327
4006.00   5.73811197   0.06037845
4008.00   5.79592180   0.06070607
4010.00   5.77959967   0.06068221
4012.00   5.79639196   0.06052253
4014.00   5.75365305   0.06007564
4016.00   5.74373531   0.05992580
4018.00   5.75674868   0.06076427
4020.00   5.80563974   0.06227610
4022.00   5.75864410   0.06268405
4024.00   5.70832682   0.06206963
4026.00   5.63670349   0.06056432
4028.00   5.61869574   0.05957773
4030.00   5.71079779   0.05963147
4032.00   5.61046457   0.05912662
4034.00   5.79529047   0.05943013
4036.00   5.68396950   0.05880290
4038.00   5.63910055   0.05836252
4040.00   5.76047564   0.05884355
4042.00   5.71416044   0.05901191
4044.00   5.67226410   0.06564201
4046.00   5.81795216   0.07351295
4048.00   5.68118143   0.07153793
4050.00   5.76138067   0.06325560
4052.00   5.77341318   0.05967740
4054.00   5.76785040   0.05948539
4056.00   5.76967478   0.05911936
4058.00   5.70302773   0.05814629
4060.00   5.84578276   0.05826373
4062.00   5.72388983   0.05740490
4064.00   5.76180172   0.05752571
4066.00   5.85307503   0.05792832
4068.00   5.78962326   0.05752363
4070.00   5.76342630   0.05729561
4072.00   5.73068237   0.05681975
4074.00   5.80538511   0.05735999
4076.00   5.68262672   0.05859417
4078.00   5.83405352   0.05985029
4080.00   5.92514324   0.05970777
4082.00   5.80739403   0.05848787
4084.00   5.91890240   0.05866517
4086.00   5.92552376   0.05836685
4088.00   5.90961742   0.05794702
4090.00   5.87365198   0.05693763
4092.00   5.96199322   0.05706397
4094.00   5.86853600   0.05655880
4096.00   5.85880232   0.05651543
4098.00   5.83936262   0.05635913
4100.00   5.90394783   0.05646510
4102.00   5.80582905   0.05584521
4104.00   5.82102728   0.05570192
4106.00   5.86282015   0.05584852
4108.00   5.88834858   0.05595236
4110.00   5.90336990   0.05576616
4112.00   5.75274324   0.05505810
4114.00   5.75686598   0.05503446
4116.00   5.86939526   0.05534178
4118.00   5.88390350   0.05507610
4120.00   5.87378979   0.05485028
4122.00   5.88469267   0.05477065
4124.00   5.79293680   0.05427318
4126.00   5.72354460   0.05401457
4128.00   5.71052170   0.05379374
4130.00   5.53754711   0.05303598
4132.00   5.50429535   0.05315632
4134.00   5.45018435   0.05287467
4136.00   5.46691895   0.05236564
4138.00   5.44079876   0.05219608
4140.00   5.26790094   0.05154896
4142.00   5.30793095   0.05142479
4144.00   5.27498293   0.05066153
4146.00   5.29826260   0.05039360
4148.00   5.30813074   0.05034957
4150.00   5.19158030   0.05022309
4152.00   5.15098572   0.05032403
4154.00   5.12134552   0.05000586
4156.00   5.13644552   0.04953814
4158.00   5.05389833   0.04890617
4160.00   5.02377892   0.04876737
4162.00   4.96803188   0.04863259
4164.00   4.89781523   0.04902029
4166.00   4.91225958   0.04903674
4168.00   4.84246445   0.04804462
4170.00   4.81728411   0.04742695
4172.00   4.86039019   0.04735462
4174.00   4.79945755   0.04686922
4176.00   4.85010099   0.04704370
4178.00   4.73411608   0.04670024
4180.00   4.79632235   0.04680220
4182.00   4.82394648   0.04662556
4184.00   4.69908381   0.04599527
4186.00   4.69282389   0.04588255
4188.00   4.56086969   0.04525140
4190.00   4.52489758   0.04508547
4192.00   4.49348497   0.04486956
4194.00   4.54100943   0.04494936
4196.00   4.43474722   0.04437308
4198.00   4.41282797   0.04410507
4200.00   4.45271015   0.04421688
4202.00   4.38967943   0.04390821
4204.00   4.38625669   0.04387433
4206.00   4.27943039   0.04340480
4208.00   4.19702101   0.04309343
4210.00   4.31593895   0.04365295
4212.00   4.22162628   0.04323281
4214.00   4.18921471   0.04291795
4216.00   4.23765945   0.04302841
4218.00   4.30029488   0.04315331
4220.00   4.27043247   0.04303968
4222.00   4.17088127   0.04248690
4224.00   4.21962690   0.04256444
4226.00   4.23581600   0.04257048
4228.00   4.28180933   0.04271824
4230.00   4.18362284   0.04237056
4232.00   4.29945660   0.04299882
4234.00   4.28196144   0.04289994
4236.00   4.17467070   0.04257068
4238.00   4.21504402   0.04285626
4240.00   4.22955847   0.04267352
4242.00   4.27205753   0.04248630
4244.00   4.28547525   0.04318331
4246.00   4.33539534   0.04450731
4248.00   4.33733511   0.04446110
4250.00   4.33969259   0.04331303
4252.00   4.36344624   0.04279780
4254.00   4.38567972   0.04270781
4256.00   4.41838741   0.04281165
4258.00   4.47924805   0.04303074
4260.00   4.39048958   0.04255632
4262.00   4.51131725   0.04287170
4264.00   4.57025051   0.04301091
4266.00   4.60745478   0.04313766
4268.00   4.53970909   0.04292263
4270.00   4.63928509   0.04327207
4272.00   4.73960781   0.04365314
4274.00   4.84446573   0.04400860
4276.00   4.85675526   0.04415998
4278.00   4.85915709   0.04422150
4280.00   4.92316437   0.04444346
4282.00   4.97293711   0.04469710
4284.00   5.02032375   0.04477806
4286.00   5.10822201   0.04501737
4288.00   5.03270292   0.04463256
4290.00   5.07319212   0.04475891
4292.00   5.12672377   0.04492289
4294.00   5.13983965   0.04505491
4296.00   5.19706345   0.04518536
4298.00   5.23241663   0.04523739
4300.00   5.18999004   0.04496617
4302.00   5.33013058   0.04542750
4304.00   5.28117180   0.04531403
4306.00   5.29915333   0.04548505
4308.00   5.31830120   0.04554696
4310.00   5.36248827   0.04569487
4312.00   5.39378357   0.04648076
4314.00   5.42701149   0.04708674
4316.00   5.42359066   0.04675384
4318.00   5.40891123   0.04639599
4320.00   5.40993500   0.04661256
4322.00   5.54815245   0.04718630
4324.00   5.58851004   0.04708060
4326.00   5.55729055   0.04671163
4328.00   5.56714725   0.04647923
4330.00   5.60801172   0.04634421
4332.00   5.60674143   0.04624155
4334.00   5.60766029   0.04624657
4336.00   5.58488512   0.04628725
4338.00   5.54072475   0.04635718
4340.00   5.52114582   0.04639812
4342.00   5.59564352   0.04660527
4344.00   5.66395235   0.04685765
4346.00   5.49577713   0.04683892
4348.00   5.60240126   0.04736875
4350.00   5.52442503   0.04677988
4352.00   5.53571129   0.04654192
4354.00   5.47949457   0.04770342
4356.00   5.66347504   0.05833328
4358.00   5.60135031   0.06575905
4360.00   5.56377506   0.06319159
4362.00   5.40607834   0.05375591
4364.00   5.31967545   0.04789831
4366.00   5.36787224   0.04635832
4368.00   5.33143187   0.04583520
4370.00   5.26420116   0.04542673
4372.00   5.27138853   0.04558502
4374.00   5.31250715   0.04584148
4376.00   5.20177126   0.04530578
4378.00   5.25315237   0.04491121
4380.00   5.18509912   0.04444268
4382.00   5.13050222   0.04401202
4384.00   5.12872553   0.04380779
4386.00   5.16055584   0.04393682
4388.00   5.08586597   0.04362505
4390.00   5.01013088   0.04328610
4392.00   4.94019938   0.04303466
4394.00   4.86898422   0.04263862
4396.00   4.93880320   0.04278909
4398.00   4.90901375   0.04285005
4400.00   4.80930281   0.04273249
4402.00   4.75473166   0.04246059
4404.00   4.77839899   0.04218309
4406.00   4.74850702   0.04189721
4408.00   4.64583111   0.04154189
4410.00   4.72286367   0.04174352
4412.00   4.72204924   0.04178007
4414.00   4.65468407   0.04179839
4416.00   4.68941689   0.04183855
4418.00   4.57251501   0.04136980
4420.00   4.61494064   0.04130611
4422.00   4.59442902   0.04109194
4424.00   4.54495764   0.04089812
4426.00   4.50324345   0.04067906
4428.00   4.41541386   0.04029506
4430.00   4.49625254   0.04054653
4432.00   4.49264383   0.04054339
4434.00   4.42460299   0.04026379
4436.00   4.43327618   0.04025029
4438.00   4.45204020   0.04027533
4440.00   4.45612574   0.04028689
4442.00   4.33719492   0.03981062
4444.00   4.34457874   0.03989603
4446.00   4.31859589   0.03975593
4448.00   4.37877131   0.03989048
4450.00   4.34971142   0.03973384
4452.00   4.40908146   0.03988796
4454.00   4.45811558   0.04000941
4456.00   4.37843466   0.03970882
4458.00   4.40955973   0.03978077
4460.00   4.43950701   0.03982017
4462.00   4.47640753   0.03992251
4464.00   4.54121733   0.04008997
4466.00   4.56736517   0.04018090
4468.00   4.55722141   0.04008525
4470.00   4.55587053   0.03997476
4472.00   4.52433395   0.03987780
4474.00   4.57982063   0.04017702
4476.00   4.60944557   0.04020194
4478.00   4.62322140   0.04023338
4480.00   4.59249592   0.04010838
4482.00   4.58958626   0.04007681
4484.00   4.63259459   0.04027306
4486.00   4.76018572   0.04067747
4488.00   4.77695608   0.04073650
4490.00   4.68356514   0.04046940
4492.00   4.83850479   0.04106890
4494.00   4.87863255   0.04117562
4496.00   4.89982271   0.04129554
4498.00   4.94241571   0.04139668
4500.00   4.91870594   0.04133713
4502.00   4.97987413   0.04144777
4504.00   5.02305222   0.04149857
4506.00   5.10569906   0.04172213
4508.00   4.96475410   0.04123077
4510.00   5.08858252   0.04153016
4512.00   5.19919062   0.04188677
4514.00   5.24128103   0.04191748
4516.00   5.20335102   0.04171081
4518.00   5.25831652   0.04184463
4520.00   5.27680635   0.04185598
4522.00   5.22042036   0.04174843
4524.00   5.25442266   0.04174924
4526.00   5.27327299   0.04178833
4528.00   5.33469772   0.04191554
4530.00   5.27767658   0.04164789
4532.00   5.23648357   0.04269621
4534.00   5.27513123   0.04195227
4536.00   5.30277920   0.04172822
4538.00   5.41964197   0.04200683
4540.00   5.33619165   0.04178534
4542.00   5.46290636   0.04227035
4544.00   5.46140528   0.04229788
4546.00   5.29990005   0.04179261
4548.00   5.38451147   0.04189920
4550.00   5.38773584   0.04183350
4552.00   5.39806557   0.04180738
4554.00   5.44304037   0.04192947
4556.00   5.45291662   0.04202078
4558.00   5.44837666   0.04201547
4560.00   5.41249084   0.04195180
4562.00   5.40086126   0.04178785
4564.00   5.35304737   0.04148756
4566.00   5.44676542   0.04175641
4568.00   5.38955307   0.04158061
4570.00   5.44436359   0.04174942
4572.00   5.46283436   0.04185334
4574.00   5.44848251   0.04179851
4576.00   5.43628216   0.04177617
4578.00   5.43707228   0.04166581
4580.00   5.48259020   0.04169812
4582.00   5.39027834   0.04135196
4584.00   5.32181835   0.04100650
4586.00   5.33970928   0.04105506
4588.00   5.35827494   0.04113219
4590.00   5.33079290   0.04109566
4592.00   5.18245316   0.04053632
4594.00   5.19937611   0.04064202
4596.00   5.18435860   0.04052133
4598.00   5.22072840   0.04062665
4600.00   5.16340923   0.04032386
4602.00   5.18804693   0.04027584
4604.00   5.18400955   0.04031516
4606.00   5.17118359   0.04023685
4608.00   5.11559248   0.04010814
4610.00   5.15029573   0.04025432
4612.00   5.10562992   0.03995717
4614.00   5.06325388   0.03975089
4616.00   5.00714302   0.03947219
4618.00   5.00057125   0.03939829
4620.00   4.99342871   0.03936220
4622.00   4.93694925   0.03915692
4624.00   4.88513899   0.03889044
4626.00   4.83849335   0.03880392
4628.00   4.80270004   0.03856007
4630.00   4.75137615   0.03843594
4632.00   4.80524969   0.03861494
4634.00   4.71063519   0.03823453
4636.00   4.69445515   0.03811220
4638.00   4.65888596   0.03795689
4640.00   4.59710169   0.03774859
4642.00   4.47119236   0.03726582
4644.00   4.51038694   0.03738072
4646.00   4.56040525   0.03754388
4648.00   4.52363205   0.03744493
4650.00   4.51765776   0.03742320
4652.00   4.49213839   0.03729447
4654.00   4.46024227   0.03715190
4656.00   4.41525078   0.03709493
4658.00   4.44566584   0.03727895
4660.00   4.43595552   0.03728718
4662.00   4.37765694   0.03720010
4664.00   4.31475306   0.03713353
4666.00   4.29378605   0.03718877
4668.00   4.30707121   0.03740367
4670.00   4.34218121   0.03759911
4672.00   4.28126001   0.03728653
4674.00   4.24165154   0.03705584
4676.00   4.25955343   0.03689178
4678.00   4.22860861   0.03663548
4680.00   4.22514439   0.03644509
4682.00   4.18699503   0.03621501
4684.00   4.19563341   0.03609342
4686.00   4.14017200   0.03582169
4688.00   4.14614916   0.03582599
4690.00   4.05716228   0.03542444
4692.00   4.00937319   0.03517007
4694.00   4.07480001   0.03536234
4696.00   4.05043650   0.03521783
4698.00   3.97590089   0.03488834
4700.00   3.97621799   0.03480151
4702.00   3.90284014   0.03454868
4704.00   3.90866017   0.03461152
4706.00   3.85276055   0.03451196
4708.00   3.87594318   0.03462239
4710.00   3.79606318   0.03437942
4712.00   3.83536530   0.03448350
4714.00   3.80944610   0.03426660
4716.00   3.76797009   0.03402978
4718.00   3.74482250   0.03389799
4720.00   3.78547692   0.03403090
4722.00   3.74279189   0.03377002
4724.00   3.80617690   0.03406627
4726.00   3.78397942   0.03420474
4728.00   3.70032763   0.03432974
4730.00   3.68506718   0.03443224
4732.00   3.69551039   0.03449572
4734.00   3.75681472   0.03482565
4736.00   3.68900657   0.03478450
4738.00   3.71296620   0.03508872
4740.00   3.62409735   0.03502510
4742.00   3.79871154   0.03589458
4744.00   3.72498107   0.03543656
4746.00   3.70501208   0.03466585
4748.00   3.71214080   0.03415767
4750.00   3.74755549   0.03402397
4752.00   3.72070360   0.03401704
4754.00   3.76346540   0.03411675
4756.00   3.83437085   0.03418519
4758.00   3.89154291   0.03407633
4760.00   3.86209869   0.03381855
4762.00   3.89424944   0.03379693
4764.00   4.02623940   0.03425648
4766.00   4.01878452   0.03414743
4768.00   4.04796839   0.03426611
4770.00   4.10694122   0.03435639
4772.00   4.15612888   0.03451596
4774.00   4.18435431   0.03466371
4776.00   4.27324200   0.03511190
4778.00   4.29128361   0.03542035
4780.00   4.35791683   0.03567784
4782.00   4.42834520   0.03583168
4784.00   4.44572163   0.03574143
4786.00   4.55292559   0.03595705
4788.00   4.64096212   0.03623211
4790.00   4.74849319   0.03664653
4792.00   4.76717377   0.03670789
4794.00   4.87871408   0.03704824
4796.00   4.87307358   0.03700858
4798.00   4.92833424   0.03709198
4800.00   4.99677563   0.03730118
4802.00   5.03712368   0.03740370
4804.00   5.10722065   0.03766636
4806.00   5.15429163   0.03783754
4808.00   5.16947460   0.03790031
4810.00   5.14772558   0.03777179
4812.00   5.24327755   0.03812697
4814.00   5.25930548   0.03810125
4816.00   5.25553989   0.03810505
4818.00   5.36168432   0.03847538
4820.00   5.41076612   0.03865100
4822.00   5.43720388   0.03877588
4824.00   5.47662783   0.03899511
4826.00   5.54341745   0.03922551
4828.00   5.56919718   0.03932805
4830.00   5.60608053   0.03945218
4832.00   5.73407412   0.03988118
4834.00   5.73341513   0.03987728
4836.00   5.82563829   0.04008986
4838.00   5.79138136   0.04011112
4840.00   5.87635469   0.04045372
4842.00   5.81842852   0.04015981
4844.00   5.91123438   0.04035409
4846.00   5.92593479   0.04034907
4848.00   5.91557932   0.04034932
4850.00   6.00097275   0.04057158
4852.00   6.04045534   0.04070685
4854.00   5.96823835   0.04043034
4856.00   5.94343758   0.04025986
4858.00   5.91914654   0.04015811
4860.00   6.07265615   0.04060186
4862.00   6.00315619   0.04049174
4864.00   6.00789404   0.04048237
4866.00   5.95584965   0.04032054
4868.00   5.94158888   0.04023180
4870.00   5.97546339   0.04028594
4872.00   5.94799328   0.04013215
4874.00   5.83053446   0.03975093
4876.00   5.86342430   0.03990715
4878.00   5.84639549   0.03986396
4880.00   5.87752533   0.03998998
4882.00   5.78557777   0.03958768
4884.00   5.74739599   0.03943959
4886.00   5.78593254   0.03943385
4888.00   5.71309614   0.03911633
4890.00   5.69749069   0.03905812
4892.00   5.69477844   0.03908069
4894.00   5.56843758   0.03865482
4896.00   5.55685759   0.03860344
4898.00   5.48245144   0.03826073
4900.00   5.42761421   0.03801848
4902.00   5.37293673   0.03782684
4904.00   5.36633492   0.03779084
4906.00   5.33776903   0.03769318
4908.00   5.35973740   0.03777406
4910.00   5.39112711   0.03787992
4912.00   5.30509043   0.03753103
4914.00   5.25500250   0.03735618
4916.00   5.22749043   0.03727960
4918.00   5.26663351   0.03730914
4920.00   5.22647905   0.03711302
4922.00   5.31339645   0.03734607
4924.00   5.21308661   0.03696757
4926.00   5.22651672   0.03690319
4928.00   5.16798687   0.03664133
4930.00   5.15195417   0.03655401
4932.00   5.18820143   0.03659236
4934.00   5.17941427   0.03656273
4936.00   5.19849920   0.03666277
4938.00   5.19100666   0.03663814
4940.00   5.13024759   0.03646142
4942.00   5.12660313   0.03643808
4944.00   5.15843868   0.03643373
4946.00   5.21478748   0.03658887
4948.00   5.18800354   0.03643437
4950.00   5.13910341   0.03629496
4952.00   5.05311251   0.03618472
4954.00   5.13647509   0.03651921
4956.00   5.00550938   0.03601769
4958.00   5.05586624   0.03609591
4960.00   5.05531454   0.03608214
4962.00   4.99150658   0.03590033
4964.00   5.03119230   0.03604282
4966.00   4.99504232   0.03600922
4968.00   4.98803377   0.03606009
4970.00   4.94603014   0.03608209
4972.00   4.95978928   0.03628259
4974.00   4.99741650   0.03664756
4976.00   4.92436647   0.03680648
4978.00   4.93148327   0.03726879
4980.00   4.98632479   0.03788004
4982.00   4.93745995   0.03808389
4984.00   4.85793304   0.03789885
4986.00   4.88565731   0.03773494
4988.00   4.82668924   0.03717548
4990.00   4.71354818   0.03656028
4992.00   4.83783484   0.03653182
4994.00   4.77450418   0.03601903
4996.00   4.66354609   0.03534845
4998.00   4.66807985   0.03509921
5000.00   4.63252258   0.03476961
5002.00   4.70177221   0.03489487
5004.00   4.63456917   0.03459032
5006.00   4.63050938   0.03450008
5008.00   4.50856161   0.03409111
5010.00   4.55066013   0.03415997
5012.00   4.46276140   0.03385878
5014.00   4.45660496   0.03380897
5016.00   4.38958073   0.03365037
5018.00   4.37972164   0.03370269
5020.00   4.35738182   0.03370311
5022.00   4.34625387   0.03362171
5024.00   4.37551641   0.03365481
5026.00   4.26655960   0.03395966
5028.00   4.29586267   0.03334014
5030.00   4.28587246   0.03347109
5032.00   4.30544424   0.03351289
5034.00   4.21092367   0.03315073
5036.00   4.17206049   0.03293717
5038.00   4.20564890   0.03298068
5040.00   4.16383553   0.03276783
5042.00   4.09235382   0.03251663
5044.00   4.10526562   0.03264532
5046.00   4.07951021   0.03256077
5048.00   4.01124191   0.03230095
5050.00   3.97177720   0.03217344
5052.00   4.06159306   0.03250770
5054.00   4.06851721   0.03256466
5056.00   4.03241587   0.03243602
5058.00   4.07858419   0.03256838
5060.00   4.05279732   0.03255201
5062.00   4.07449818   0.03272268
5064.00   4.01796055   0.03274619
5066.00   3.96156740   0.03264882
5068.00   4.00805712   0.03304051
5070.00   4.00675249   0.03320144
5072.00   3.98281455   0.03300713
5074.00   3.99364495   0.03291075
5076.00   3.97777486   0.03277409
5078.00   3.99725819   0.03288420
5080.00   4.04080915   0.03362624
5082.00   4.07573986   0.03462412
5084.00   3.99653029   0.03500416
5086.00   4.04097176   0.03535317
5088.00   4.08023024   0.03511030
5090.00   4.03135443   0.03426701
5092.00   4.11959362   0.03397633
5094.00   4.10033989   0.03347543
5096.00   4.15770769   0.03362724
5098.00   4.17904854   0.03392335
5100.00   4.15364361   0.03401694
5102.00   4.12973213   0.03377322
5104.00   4.14658356   0.03355353
5106.00   4.19449139   0.03351340
5108.00   4.12563419   0.03317592
5110.00   4.17439508   0.03334978
5112.00   4.18655443   0.03344878
5114.00   4.19443750   0.03355033
5116.00   4.22563553   0.03373352
5118.00   4.18818235   0.03358252
5120.00   4.18674135   0.03351144
5122.00   4.20474577   0.03346363
5124.00   4.26799679   0.03365738
5126.00   4.24492359   0.03359844
5128.00   4.32148027   0.03388054
5130.00   4.21353817   0.03350233
5132.00   4.24303627   0.03368156
5134.00   4.28747654   0.03380508
5136.00   4.28028345   0.03384463
5138.00   4.27006674   0.03386737
5140.00   4.30724382   0.03402131
5142.00   4.30246639   0.03401607
5144.00   4.24092102   0.03382070
5146.00   4.30205774   0.03420588
5148.00   4.28327942   0.03441447
5150.00   4.27033949   0.03456890
5152.00   4.26210117   0.03489074
5154.00   4.32979393   0.03532800
5156.00   4.33707952   0.03526971
5158.00   4.32748747   0.03505936
5160.00   4.29383802   0.03470653
5162.00   4.33173943   0.03469440
5164.00   4.29298306   0.03445711
5166.00   4.28268337   0.03433272
5168.00   4.34363127   0.03447247
5170.00   4.36791611   0.03460182
5172.00   4.33270121   0.03455817
5174.00   4.39271498   0.03480711
5176.00   4.34906912   0.03475897
5178.00   4.38759851   0.03492573
5180.00   4.35939550   0.03486891
5182.00   4.34480858   0.03484034
5184.00   4.34454346   0.03483744
5186.00   4.31601381   0.03479749
5188.00   4.21687365   0.03453152
5190.00   4.36066961   0.03506779
5192.00   4.34177732   0.03511148
5194.00   4.38894415   0.03527523
5196.00   4.34840488   0.03531114
5198.00   4.33963776   0.03537868
5200.00   4.39530373   0.03560595
5202.00   4.34999514   0.03552791
5204.00   4.30350161   0.03540087
5206.00   4.34173155   0.03551274
5208.00   4.31424141   0.03558389
5210.00   4.38375854   0.03600085
5212.00   4.31613255   0.03578139
5214.00   4.34398174   0.03586006
5216.00   4.33025265   0.03579694
5218.00   4.37264729   0.03615668
5220.00   4.37322044   0.03624346
5222.00   4.41981554   0.03642162
5224.00   4.45275974   0.03652344
5226.00   4.46354485   0.03654379
5228.00   4.41630840   0.03645583
5230.00   4.49899149   0.03684729
5232.00   4.49153852   0.03686542
5234.00   4.50990391   0.03695536
5236.00   4.45218134   0.03684742
5238.00   4.50890255   0.03713634
5240.00   4.48765230   0.03714866
5242.00   4.45915604   0.03704228
5244.00   4.51618576   0.03723494
5246.00   4.45255804   0.03710744
5248.00   4.53923702   0.03742276
5250.00   4.46786785   0.03724050
5252.00   4.52947330   0.03757645
5254.00   4.52406120   0.03768755
5256.00   4.51720953   0.03788352
5258.00   4.53776741   0.03814147
5260.00   4.52072763   0.03803871
5262.00   4.46089029   0.03779161
5264.00   4.47538280   0.03785719
5266.00   4.43446207   0.03768718
5268.00   4.47113991   0.03792598
5270.00   4.42667723   0.03774405
5272.00   4.48907042   0.03807801
5274.00   4.48127937   0.03814090
5276.00   4.42793036   0.03813592
5278.00   4.48317194   0.03840010
5280.00   4.47312689   0.03834782
5282.00   4.43324661   0.03832637
5284.00   4.55076981   0.03888755
5286.00   4.54717875   0.03898121
5288.00   4.46853590   0.03878692
5290.00   4.41823435   0.03863137
5292.00   4.41511917   0.03862526
5294.00   4.40504408   0.03869817
5296.00   4.33364153   0.03853315
5298.00   4.40459442   0.03891135
5300.00   4.43725014   0.03918282
5302.00   4.46080017   0.03936001
5304.00   4.49242783   0.03953493
5306.00   4.41998529   0.03932521
5308.00   4.43999720   0.03945227
5310.00   4.41682243   0.03949616
5312.00   4.34907770   0.03936660
5314.00   4.33883142   0.03942990
5316.00   4.42495060   0.03977564
5318.00   4.34637260   0.03961130
5320.00   4.40740204   0.03989622
5322.00   4.45681429   0.04015196
5324.00   4.40746117   0.04007455
5326.00   4.49829149   0.04059948
5328.00   4.43145132   0.04036895
5330.00   4.39421797   0.04039412
5332.00   4.41960812   0.04059384
5334.00   4.38324738   0.04055107
5336.00   4.38910723   0.04066719
5338.00   4.37215471   0.04073054
5340.00   4.45303440   0.04126854
5342.00   4.48253870   0.04163200
5344.00   4.35320044   0.04126098
5346.00   4.41019630   0.04155266
5348.00   4.51672459   0.04236922
5350.00   4.35597038   0.04189884
5352.00   4.34660912   0.04192113
5354.00   4.34172297   0.04212527
5356.00   4.44886684   0.04270403
5358.00   4.39911461   0.04242217
5360.00   4.29613495   0.04193055
5362.00   4.33769131   0.04195611
5364.00   4.39384270   0.04214374
5366.00   4.30396414   0.04179382
5368.00   4.28726578   0.04182313
5370.00   4.28134394   0.04185120
5372.00   4.22435236   0.04185326
5374.00   4.31554556   0.04246300
5376.00   4.28558493   0.04251450
5378.00   4.27920151   0.04262553
5380.00   4.27544117   0.04260799
5382.00   4.23834896   0.04252719
5384.00   4.27576447   0.04275735
5386.00   4.28146124   0.04288310
5388.00   4.24754858   0.04279738
5390.00   4.30566311   0.04333661
5392.00   4.17895889   0.04313746
5394.00   4.18241882   0.04328147
5396.00   4.06806803   0.04298319
5398.00   4.20856428   0.04352383
5400.00   4.14353561   0.04333286
5402.00   4.14868736   0.04351456
5404.00   4.07906437   0.04319015
5406.00   3.97667265   0.04306567
5408.00   4.10359287   0.04374065
5410.00   4.10492277   0.04397074
5412.00   4.07756090   0.04425683
5414.00   4.16207790   0.04489170
5416.00   4.09733295   0.04495444
5418.00   4.04712105   0.04505449
5420.00   4.12253141   0.04554670
5422.00   4.11039305   0.04556913
5424.00   4.06939459   0.04545588
5426.00   4.07856941   0.04557634
5428.00   3.96980286   0.04522535
5430.00   3.97361135   0.04527647
5432.00   4.07711935   0.04587950
5434.00   4.07382202   0.04591605
5436.00   4.05633783   0.04693171
5438.00   4.07931185   0.04673995
5440.00   4.11232376   0.04656716
5442.00   4.11320114   0.04657324
5444.00   3.99051929   0.04625931
5446.00   3.94203401   0.04621377
5448.00   3.92977285   0.04625141
5450.00   4.11437321   0.04720050
5452.00   4.11113501   0.01987850
5454.00   4.08275700   0.02143040
5456.00   4.00381231   0.02432037
5458.00   3.98672438   0.02478093
5460.00   4.01010084   0.02306608
5462.00   4.03882790   0.02197521
5464.00   4.08294392   0.02241821
5466.00   4.12238026   0.02305173
5468.00   4.10720825   0.02222796
5470.00   4.03786135   0.02008658
5472.00   4.02330160   0.01890354
5474.00   4.04992390   0.01788487
5476.00   4.05486536   0.01749573
5478.00   4.02619791   0.01789714
5480.00   4.00374937   0.01870383
5482.00   4.02911615   0.01965397
5484.00   4.09042215   0.02087041
5486.00   4.09491920   0.02172765
5488.00   4.05445004   0.02315629
5490.00   4.02999210   0.02293969
5492.00   4.00691795   0.02051721
5494.00   3.99175406   0.01797559
5496.00   3.99035835   0.01684540
5498.00   3.99906301   0.01654576
5500.00   4.01001787   0.01693280
5502.00   4.03426552   0.01869444
5504.00   4.04411650   0.01948305
5506.00   4.04698038   0.02013464
5508.00   4.04370689   0.02030548
5510.00   4.02827454   0.01969305
5512.00   4.01012468   0.01867637
5514.00   4.01776791   0.01822684
5516.00   4.06468248   0.01776364
5518.00   4.04679585   0.01827788
5520.00   3.97402096   0.01984024
5522.00   3.91043162   0.02111156
5524.00   3.84649062   0.02251395
5526.00   3.79781270   0.02337832
5528.00   3.80222750   0.02245603
5530.00   3.85651016   0.01957070
5532.00   3.87057948   0.01849284
5534.00   3.86858058   0.01869498
5536.00   3.86568189   0.01856716
5538.00   3.86268187   0.01808982
5540.00   3.85276270   0.01783087
5542.00   3.83115435   0.01821732
5544.00   3.80010200   0.01903279
5546.00   3.76346231   0.01969088
5548.00   3.69410610   0.02096805
5550.00   3.67619658   0.02096747
5552.00   3.71019530   0.01932748
5554.00   3.74429417   0.01803049
5556.00   3.75412631   0.01828019
5558.00   3.75822878   0.01924854
5560.00   3.78700590   0.01965969
5562.00   3.86077714   0.02010232
5564.00   3.86773515   0.02018200
5566.00   3.81104183   0.01993987
5568.00   3.77513552   0.01960088
5570.00   3.77703571   0.01881491
5572.00   3.79432392   0.01818820
5574.00   3.80946016   0.01929936
5576.00   3.83314800   0.02213622
5578.00   3.84693456   0.02264036
5580.00   3.86446834   0.02196193
5582.00   3.86215878   0.02080635
5584.00   3.83153296   0.01834214
5586.00   3.79463148   0.01572710
5588.00   3.77154446   0.01533262
5590.00   3.75199556   0.01666063
5592.00   3.74819517   0.01684194
5594.00   3.76642895   0.01684847
5596.00   3.77407026   0.01663367
5598.00   3.77772665   0.01590803
5600.00   3.77557492   0.01535364
5602.00   3.76152802   0.01560440
5604.00   3.73945832   0.01629034
5606.00   3.73807669   0.01615232
5608.00   3.76491618   0.01500735
5610.00   3.76140165   0.01488970
5612.00   3.72833729   0.01562896
5614.00   3.70513511   0.01625576
5616.00   3.70642543   0.01661758
5618.00   3.71836042   0.01681289
5620.00   3.72293282   0.01654397
5622.00   3.73531079   0.01555972
5624.00   3.72211838   0.01522173
5626.00   3.67496443   0.01528399
5628.00   3.64724636   0.01533321
5630.00   3.64728832   0.01534579
5632.00   3.65867400   0.01537038
5634.00   3.66739702   0.01540230
5636.00   3.68080974   0.01545428
5638.00   3.68963623   0.01545934
5640.00   3.69848871   0.01556655
5642.00   3.70230770   0.01538478
5644.00   3.70519686   0.01458865
5646.00   3.69919872   0.01397141
5648.00   3.66986036   0.01444709
5650.00   3.62031198   0.01562332
5652.00   3.62065196   0.01588638
5654.00   3.67260504   0.01569096
5656.00   3.69409418   0.01543412
5658.00   3.69786620   0.01460908
5660.00   3.69663906   0.01424801
5662.00   3.69238448   0.01516765
5664.00   3.68495679   0.01663214
5666.00   3.68815804   0.01698305
5668.00   3.70681262   0.01669500
5670.00   3.70765710   0.01640137
5672.00   3.69948125   0.01545055
5674.00   3.68509126   0.01507371
5676.00   3.66044211   0.01577964
5678.00   3.63261676   0.01687908
5680.00   3.61913562   0.01752707
5682.00   3.61412358   0.01820678
5684.00   3.61294913   0.01833004
5686.00   3.61973786   0.01777342
5688.00   3.62652397   0.01747539
5690.00   3.63734150   0.01758401
5692.00   3.64467740   0.01771029
5694.00   3.63551736   0.01749658
5696.00   3.61082625   0.01706370
5698.00   3.60983443   0.01664399
5700.00   3.63064265   0.01589392
5702.00   3.63909912   0.01562685
5704.00   3.63689303   0.01613423
5706.00   3.63319898   0.01644221
5708.00   3.63261366   0.01579958
5710.00   3.63275480   0.01451724
5712.00   3.63425875   0.01406253
5714.00   3.64068747   0.01417857
5716.00   3.63957477   0.01421039
5718.00   3.63223195   0.01434628
5720.00   3.62342072   0.01452050
5722.00   3.61479831   0.01472880
5724.00   3.60508394   0.01495863
5726.00   3.59265113   0.01510461
5728.00   3.56595707   0.01511019
5730.00   3.57085562   0.01534465
5732.00   3.61555576   0.01589332
5734.00   3.63742447   0.01617203
5736.00   3.62303305   0.01605316
5738.00   3.59479785   0.01577487
5740.00   3.57461858   0.01562914
5742.00   3.54800987   0.01553956
5744.00   3.54567862   0.01527083
5746.00   3.57175469   0.01467740
5748.00   3.58430886   0.01439672
5750.00   3.58173323   0.01464073
5752.00   3.57692075   0.01483003
5754.00   3.58043790   0.01434587
5756.00   3.58882356   0.01331383
5758.00   3.58300948   0.01326629
5760.00   3.56134796   0.01410732
5762.00   3.54949284   0.01453750
5764.00   3.54444551   0.01475895
5766.00   3.54090142   0.01495909
5768.00   3.53633118   0.01520649
5770.00   3.53230548   0.01545969
5772.00   3.53145385   0.01569086
5774.00   3.53683805   0.01624515
5776.00   3.53501868   0.01599872
5778.00   3.52906775   0.01448310
5780.00   3.52090883   0.01369009
5782.00   3.50816584   0.01451201
5784.00   3.49485254   0.01597527
5786.00   3.49245620   0.01703640
5788.00   3.49649239   0.01860126
5790.00   3.50718546   0.01853553
5792.00   3.52353001   0.01661241
5794.00   3.54826450   0.01530768
5796.00   3.59313393   0.01511320
5798.00   3.63430738   0.01525947
5800.00   3.63646269   0.01511039
5802.00   3.60704303   0.01496414
5804.00   3.60078311   0.01462295
5806.00   3.60483384   0.01388097
5808.00   3.60422683   0.01352497
5810.00   3.59609580   0.01354792
5812.00   3.59216309   0.01376247
5814.00   3.60435295   0.01415546
5816.00   3.62766790   0.01473490
5818.00   3.62791514   0.01477292
5820.00   3.60204840   0.01430545
5822.00   3.59825563   0.01404658
5824.00   3.61194849   0.01358447
5826.00   3.62568665   0.01356139
5828.00   3.63466430   0.01455686
5830.00   3.64130163   0.01588949
5832.00   3.63901305   0.01591771
5834.00   3.62435198   0.01455393
5836.00   3.61832500   0.01436985
5838.00   3.61341500   0.01495058
5840.00   3.61316180   0.01536302
5842.00   3.62297463   0.01539326
5844.00   3.63358021   0.01538093
5846.00   3.62619305   0.01578730
5848.00   3.60097027   0.01673990
5850.00   3.59528661   0.01654196
5852.00   3.60075927   0.01505374
5854.00   3.60745502   0.01414817
5856.00   3.62151909   0.01400024
5858.00   3.63138652   0.01414318
5860.00   3.62067461   0.01426813
5862.00   3.59315300   0.01451305
5864.00   3.58615685   0.01485282
5866.00   3.59144235   0.01551184
5868.00   3.59604454   0.01577170
5870.00   3.60824776   0.01572516
5872.00   3.61353874   0.01550528
5874.00   3.60374665   0.01506442
5876.00   3.58324409   0.01442249
5878.00   3.54930687   0.01428982
5880.00   3.48743939   0.01391564
5882.00   3.44911194   0.01500233
5884.00   3.42012310   0.01678740
5886.00   3.40172505   0.01933154
5888.00   3.40196371   0.02295880
5890.00   3.40943456   0.02655997
5892.00   3.38756490   0.02839426
5894.00   3.31580043   0.03009794
5896.00   3.33306980   0.02920833
5898.00   3.43741155   0.02462139
5900.00   3.51254630   0.02045798
5902.00   3.54851627   0.01752426
5904.00   3.56627989   0.01534053
5906.00   3.57283473   0.01415134
5908.00   3.55978775   0.01452972
5910.00   3.56142974   0.01475631
5912.00   3.57595229   0.01595582
5914.00   3.57526708   0.01628481
5916.00   3.55468798   0.01569962
5918.00   3.53286576   0.01488130
5920.00   3.52359772   0.01429312
5922.00   3.52032852   0.01369586
5924.00   3.52116776   0.01352535
5926.00   3.53080845   0.01386365
5928.00   3.53613853   0.01402534
5930.00   3.54048157   0.01420623
5932.00   3.54267216   0.01429239
5934.00   3.54216146   0.01420450
5936.00   3.53922009   0.01400001
5938.00   3.53306651   0.01381088
5940.00   3.52281928   0.01349209
5942.00   3.51245284   0.01336855
5944.00   3.49318671   0.01340536
5946.00   3.48611784   0.01344482
5948.00   3.50275946   0.01348781
5950.00   3.52633309   0.01351394
5952.00   3.52637982   0.01340288
5954.00   3.51015139   0.01310797
5956.00   3.49979353   0.01305509
5958.00   3.48218822   0.01322095
5960.00   3.47587204   0.01328906
5962.00   3.48552108   0.01326514
5964.00   3.49912453   0.01317754
5966.00   3.50688887   0.01294553
5968.00   3.51624846   0.01248036
5970.00   3.50073433   0.01276848
5972.00   3.44633412   0.01369026
5974.00   3.42415214   0.01447963
5976.00   3.43567991   0.01561002
5978.00   3.44923472   0.01623642
5980.00   3.44750142   0.01565170
5982.00   3.43950033   0.01415983
5984.00   3.42269492   0.01362380
5986.00   3.38667440   0.01365642
5988.00   3.36870646   0.01360860
5990.00   3.35826349   0.01370359
5992.00   3.35833359   0.01378968
5994.00   3.37291598   0.01383343
5996.00   3.39736867   0.01384802
5998.00   3.41875052   0.01374245
6000.00   3.45814919   0.01335400
6002.00   3.45369387   0.01342088
6004.00   3.39482856   0.01380664
6006.00   3.36482286   0.01424791
6008.00   3.38728905   0.01490025
6010.00   3.42088652   0.01544596
6012.00   3.41140962   0.01528318
6014.00   3.36836171   0.01442569
6016.00   3.36355376   0.01414974
6018.00   3.38354373   0.01423030
6020.00   3.40013719   0.01417410
6022.00   3.42078185   0.01404097
6024.00   3.43537974   0.01380699
6026.00   3.42956734   0.01327694
6028.00   3.40791678   0.01240553
6030.00   3.39980030   0.01259341
6032.00   3.40117550   0.01400668
6034.00   3.39349985   0.01450480
6036.00   3.37128282   0.01439333
6038.00   3.35769248   0.01414572
6040.00   3.37035847   0.01399155
6042.00   3.39692283   0.01378516
6044.00   3.39555883   0.01327976
6046.00   3.36460686   0.01217055
6048.00   3.35992002   0.01163804
6050.00   3.37472749   0.01152221
6052.00   3.38428926   0.01148709
6054.00   3.38236904   0.01147846
6056.00   3.37505960   0.01152987
6058.00   3.36549592   0.01155661
6060.00   3.34443903   0.01153633
6062.00   3.34678078   0.01170762
6064.00   3.37853217   0.01213106
6066.00   3.39069080   0.01239020
6068.00   3.37387443   0.01245675
6070.00   3.35050774   0.01244016
6072.00   3.34360981   0.01240582
6074.00   3.34506869   0.01229719
6076.00   3.34189415   0.01231787
6078.00   3.33462071   0.01247881
6080.00   3.33463788   0.01253991
6082.00   3.34787083   0.01247981
6084.00   3.35649157   0.01243335
6086.00   3.34451580   0.01250568
6088.00   3.31922078   0.01264667
6090.00   3.31126618   0.01270355
6092.00   3.31589413   0.01286621
6094.00   3.31426167   0.01268718
6096.00   3.31163692   0.01202540
6098.00   3.30592918   0.01146627
6100.00   3.29029560   0.01124274
6102.00   3.27256346   0.01124825
6104.00   3.28403616   0.01159341
6106.00   3.32375789   0.01204120
6108.00   3.35358500   0.01315836
6110.00   3.39943719   0.01544543
6112.00   3.42035580   0.01653068
6114.00   3.40236592   0.01612349
6116.00   3.36727595   0.01497783
6118.00   3.34447169   0.01392628
6120.00   3.31941080   0.01222391
6122.00   3.30607986   0.01154388
6124.00   3.30777597   0.01197182
6126.00   3.30143285   0.01208409
6128.00   3.28325200   0.01186453
6130.00   3.26559067   0.01161237
6132.00   3.25921011   0.01151114
6134.00   3.25947547   0.01147915
6136.00   3.26370692   0.01153888
6138.00   3.28214431   0.01183981
6140.00   3.28510666   0.01187769
6142.00   3.26874471   0.01159608
6144.00   3.25604010   0.01136201
6146.00   3.26243067   0.01143339
6148.00   3.27879906   0.01166018
6150.00   3.28140163   0.01168062
6152.00   3.27930975   0.01154425
6154.00   3.27017736   0.01151412
6156.00   3.24792480   0.01147824
6158.00   3.23063660   0.01154872
6160.00   3.22707963   0.01182618
6162.00   3.22757339   0.01217042
6164.00   3.21291208   0.01226467
6166.00   3.17848706   0.01219766
6168.00   3.17283845   0.01212339
6170.00   3.19088030   0.01186697
6172.00   3.20458531   0.01179404
6174.00   3.21535420   0.01215901
6176.00   3.22104979   0.01245244
6178.00   3.21109986   0.01189027
6180.00   3.18450189   0.01032284
6182.00   3.17608571   0.01020632
6184.00   3.18161440   0.01143411
6186.00   3.17983508   0.01200870
6188.00   3.17770886   0.01223308
6190.00   3.16543961   0.01215126
6192.00   3.12796521   0.01151852
6194.00   3.07005262   0.01029030
6196.00   3.04533505   0.00997025
6198.00   3.04802012   0.01047562
6200.00   3.03795242   0.01062549
6202.00   3.02091861   0.01067841
6204.00   3.00484490   0.01065636
6206.00   2.99379110   0.01047958
6208.00   2.98467135   0.01022565
6210.00   2.97020888   0.01032078
6212.00   2.95122170   0.01076701
6214.00   2.93397546   0.01100288
6216.00   2.91248608   0.01119982
6218.00   2.89823651   0.01135444
6220.00   2.89514899   0.01153316
6222.00   2.89790249   0.01162642
6224.00   2.90041757   0.01131655
6226.00   2.91332841   0.01022515
6228.00   2.89769220   0.01058654
6230.00   2.85019088   0.01237130
6232.00   2.81657410   0.01328768
6234.00   2.79465795   0.01354577
6236.00   2.78319621   0.01335995
6238.00   2.79084682   0.01248436
6240.00   2.82048607   0.01052934
6242.00   2.81366968   0.01033255
6244.00   2.77583885   0.01197155
6246.00   2.75002360   0.01249687
6248.00   2.73154140   0.01223013
6250.00   2.71432042   0.01180010
6252.00   2.69394612   0.01144878
6254.00   2.67278886   0.01104642
6256.00   2.66654301   0.01116984
6258.00   2.68957567   0.01205795
6260.00   2.67634845   0.01221429
6262.00   2.62541962   0.01192986
6264.00   2.58487773   0.01148319
6266.00   2.57250428   0.01083238
6268.00   2.57341409   0.01003454
6270.00   2.57086563   0.00968270
6272.00   2.56918073   0.00973172
6274.00   2.57583904   0.00967069
6276.00   2.59342623   0.00953620
6278.00   2.60810304   0.00966907
6280.00   2.61977100   0.01029423
6282.00   2.62826848   0.01093383
6284.00   2.62916923   0.01094216
6286.00   2.62118220   0.01041183
6288.00   2.62214041   0.01043678
6290.00   2.63435531   0.01094760
6292.00   2.63360620   0.01109276
6294.00   2.61574697   0.01073387
6296.00   2.59583473   0.01039611
6298.00   2.58510494   0.01060539
6300.00   2.57787895   0.01115416
6302.00   2.57996488   0.01131600
6304.00   2.60175753   0.01125124
6306.00   2.60365009   0.01126023
6308.00   2.58552480   0.01137670
6310.00   2.56807947   0.01136137
6312.00   2.56085563   0.01104827
6314.00   2.55820155   0.01053295
6316.00   2.55781412   0.01016023
6318.00   2.56288552   0.00969025
6320.00   2.56543541   0.00953041
6322.00   2.56908178   0.00975035
6324.00   2.57015038   0.00987781
6326.00   2.56912422   0.00979098
6328.00   2.56467819   0.00962005
6330.00   2.55063152   0.00947662
6332.00   2.52050138   0.00921611
6334.00   2.51330972   0.00927963
6336.00   2.52942204   0.00979349
6338.00   2.53254271   0.00996907
6340.00   2.51693606   0.00968136
6342.00   2.49709654   0.00926272
6344.00   2.48653293   0.00906254
6346.00   2.47956777   0.00892498
6348.00   2.47506547   0.00895577
6350.00   2.47668028   0.00898292
6352.00   2.47418928   0.00942749
6354.00   2.46785975   0.01057681
6356.00   2.46065092   0.01140960
6358.00   2.45363569   0.01132510
6360.00   2.44618011   0.01065789
6362.00   2.44281697   0.01018330
6364.00   2.44012594   0.00942260
6366.00   2.44420624   0.00901188
6368.00   2.45570469   0.00894363
6370.00   2.46911955   0.00894331
6372.00   2.48664761   0.00892285
6374.00   2.50445008   0.00893595
6376.00   2.50074244   0.00894138
6378.00   2.46618843   0.00890176
6380.00   2.46400809   0.00900816
6382.00   2.48226094   0.00934879
6384.00   2.50134015   0.00949857
6386.00   2.51732469   0.00933261
6388.00   2.53590250   0.00905582
6390.00   2.56397986   0.00896104
6392.00   2.60634232   0.00894178
6394.00   2.62356257   0.00895863
6396.00   2.61486411   0.00894022
6398.00   2.61981344   0.00913714
6400.00   2.63564467   0.00964332
6402.00   2.66098905   0.01015494
6404.00   2.70643020   0.01042781
6406.00   2.77552795   0.01058414
6408.00   2.77604532   0.01071237
6410.00   2.68043160   0.01091165
6412.00   2.67343926   0.01078434
6414.00   2.74771190   0.01003970
6416.00   2.83577752   0.00951576
6418.00   2.90853858   0.00994688
6420.00   2.98139358   0.01085235
6422.00   3.03463483   0.01102027
6424.00   3.06182194   0.01076260
6426.00   3.10771251   0.01056001
6428.00   3.16526389   0.01005544
6430.00   3.22069550   0.00983846
6432.00   3.26867461   0.01025410
6434.00   3.31480503   0.01088616
6436.00   3.36755204   0.01101034
6438.00   3.42114472   0.01074114
6440.00   3.48603964   0.01081644
6442.00   3.56234193   0.01112757
6444.00   3.64050651   0.01132547
6446.00   3.72490859   0.01131371
6448.00   3.80722642   0.01130542
6450.00   3.87220001   0.01159411
6452.00   3.92283511   0.01215709
6454.00   3.98148799   0.01223537
6456.00   4.04953575   0.01173742
6458.00   4.10066652   0.01171818
6460.00   4.12265921   0.01244229
6462.00   4.15153313   0.01295366
6464.00   4.22196531   0.01245949
6466.00   4.32005358   0.01120477
6468.00   4.37736177   0.01098907
6470.00   4.40410519   0.01146133
6472.00   4.44257164   0.01191181
6474.00   4.48934603   0.01285553
6476.00   4.52890873   0.01331163
6478.00   4.54924202   0.01265794
6480.00   4.56079340   0.01134481
6482.00   4.59853506   0.01112865
6484.00   4.67040348   0.01171326
6486.00   4.70486355   0.01208871
6488.00   4.70921993   0.01279283
6490.00   4.72212076   0.01312297
6492.00   4.75036860   0.01275151
6494.00   4.78656101   0.01219101
6496.00   4.82922220   0.01246991
6498.00   4.88305140   0.01352268
6500.00   4.92834806   0.01358955
6502.00   4.97940016   0.01280520
6504.00   5.01192427   0.01242176
6506.00   5.02077961   0.01259307
6508.00   5.02012634   0.01288756
6510.00   5.02179480   0.01300592
6512.00   5.01852322   0.01311832
6514.00   5.02830315   0.01291293
6516.00   5.04493761   0.01212218
6518.00   5.06935883   0.01185434
6520.00   5.10772800   0.01205323
6522.00   5.14476538   0.01245299
6524.00   5.17079687   0.01309577
6526.00   5.19094324   0.01390939
6528.00   5.20747328   0.01372784
6530.00   5.21302223   0.01217947
6532.00   5.22934914   0.01172673
6534.00   5.25365877   0.01212682
6536.00   5.27852297   0.01251882
6538.00   5.30986071   0.01271628
6540.00   5.33808899   0.01283935
6542.00   5.32362652   0.01270760
6544.00   5.25347614   0.01212191
6546.00   5.23556519   0.01208698
6548.00   5.25279427   0.01250826
6550.00   5.26080942   0.01279242
6552.00   5.25709248   0.01290830
6554.00   5.24560261   0.01292653
6556.00   5.21968651   0.01282315
6558.00   5.17194843   0.01258179
6560.00   5.16143894   0.01233545
6562.00   5.17786312   0.01187451
6564.00   5.19547176   0.01169405
6566.00   5.22416258   0.01188059
6568.00   5.24805164   0.01213814
6570.00   5.25149488   0.01227445
6572.00   5.24208832   0.01239801
6574.00   5.21656227   0.01227280
6576.00   5.16717815   0.01166731
6578.00   5.12233734   0.01155343
6580.00   5.06370831   0.01188929
6582.00   5.02266216   0.01228586
6584.00   5.01855803   0.01269389
6586.00   5.03855085   0.01309957
6588.00   5.05738592   0.01290008
6590.00   5.11582232   0.01176194
6592.00   5.10687256   0.01144841
6594.00   5.03785753   0.01160882
6596.00   4.97315979   0.01191264
6598.00   4.92406797   0.01225357
6600.00   4.88161898   0.01273630
6602.00   4.85283709   0.01351989
6604.00   4.84104633   0.01480080
6606.00   4.81934166   0.01519850
6608.00   4.79287577   0.01531726
6610.00   4.77086163   0.01479992
6612.00   4.75842285   0.01297448
6614.00   4.74428511   0.01077158
6616.00   4.71302366   0.01030672
6618.00   4.66694927   0.01119401
6620.00   4.63931417   0.01147135
6622.00   4.62313175   0.01180084
6624.00   4.60654783   0.01209463
6626.00   4.59723902   0.01238701
6628.00   4.58130074   0.01263345
6630.00   4.54289436   0.01279377
6632.00   4.48928881   0.01289160
6634.00   4.46626139   0.01299893
6636.00   4.47259235   0.01321868
6638.00   4.46057367   0.01313399
6640.00   4.43871450   0.01275196
6642.00   4.41493702   0.01229371
6644.00   4.39160585   0.01174785
6646.00   4.36715174   0.01115888
6648.00   4.34168482   0.01102477
6650.00   4.31755257   0.01150620
6652.00   4.28599167   0.01140914
6654.00   4.24032545   0.01076129
6656.00   4.20685387   0.01046051
6658.00   4.19440508   0.01083508
6660.00   4.18865442   0.01137775
6662.00   4.16965961   0.01148955
6664.00   4.14288998   0.01141582
6666.00   4.12207556   0.01120982
6668.00   4.10220766   0.01055221
6670.00   4.08537245   0.01031048
6672.00   4.07804155   0.01060945
6674.00   4.06565428   0.01104473
6676.00   4.03243017   0.01135679
6678.00   3.98418832   0.01169838
6680.00   3.93701410   0.01170631
6682.00   3.87053037   0.01124420
6684.00   3.83259606   0.01113423
6686.00   3.82392240   0.01120624
6688.00   3.82018280   0.01150711
6690.00   3.81156969   0.01225154
6692.00   3.80304408   0.01320692
6694.00   3.78124881   0.01323348
6696.00   3.73921227   0.01247354
6698.00   3.71606231   0.01184543
6700.00   3.70648980   0.01079219
6702.00   3.69588923   0.01003228
6704.00   3.67955971   0.00998065
6706.00   3.66213059   0.01029834
6708.00   3.64937758   0.01041897
6710.00   3.64396000   0.01061613
6712.00   3.62565589   0.01064944
6714.00   3.59471273   0.01035734
6716.00   3.56834030   0.01042596
6718.00   3.54636526   0.01105037
6720.00   3.52850533   0.01175767
6722.00   3.51933360   0.01216044
6724.00   3.52153754   0.01258889
6726.00   3.50440931   0.01209826
6728.00   3.46624851   0.00991466
6730.00   3.44271302   0.00886357
6732.00   3.43730187   0.00949682
6734.00   3.43097425   0.01031622
6736.00   3.40908885   0.01047989
6738.00   3.37818146   0.01043474
6740.00   3.35403419   0.01024623
6742.00   3.32946134   0.00952740
6744.00   3.31035876   0.00941382
6746.00   3.29516387   0.00997325
6748.00   3.28446555   0.01038619
6750.00   3.28128457   0.01032515
6752.00   3.28236580   0.01004191
6754.00   3.27254486   0.00988612
6756.00   3.24886417   0.00935280
6758.00   3.24093008   0.00975764
6760.00   3.24905705   0.01125031
6762.00   3.24786639   0.01204307
6764.00   3.23335361   0.01191963
6766.00   3.20979881   0.01134118
6768.00   3.17526579   0.01068664
6770.00   3.11846423   0.00947350
6772.00   3.09785414   0.00899434
6774.00   3.10465932   0.00912549
6776.00   3.11079264   0.00928120
6778.00   3.11910820   0.00946522
6780.00   3.12757492   0.00974498
6782.00   3.13253427   0.01021104
6784.00   3.13794422   0.01090250
6786.00   3.12234116   0.01085688
6788.00   3.08353448   0.01005895
6790.00   3.05065370   0.00952673
6792.00   3.01408935   0.00908943
6794.00   2.98492670   0.00878658
6796.00   2.97277951   0.00874310
6798.00   2.97238135   0.00890122
6800.00   2.96929264   0.00886907
6802.00   2.96798515   0.00862383
6804.00   2.97035766   0.00869209
6806.00   2.98024201   0.00910098
6808.00   2.98610830   0.00939089
6810.00   2.98642039   0.00942624
6812.00   2.98108649   0.00933730
6814.00   2.96098137   0.00924236
6816.00   2.91807508   0.00900353
6818.00   2.89718390   0.00897694
6820.00   2.88415527   0.00915751
6822.00   2.88072228   0.00925386
6824.00   2.89268017   0.00917996
6826.00   2.90903115   0.00910086
6828.00   2.91241097   0.00925392
6830.00   2.90999889   0.00962477
6832.00   2.90187550   0.00967306
6834.00   2.87999845   0.00939169
6836.00   2.86882949   0.00933766
6838.00   2.87342095   0.00950671
6840.00   2.87614036   0.00976708
6842.00   2.86189389   0.01012987
6844.00   2.83698273   0.01062492
6846.00   2.81504178   0.01047665
6848.00   2.78136826   0.00946524
6850.00   2.76852250   0.00905048
6852.00   2.77755094   0.00912905
6854.00   2.78851271   0.00931362
6856.00   2.79253221   0.00950192
6858.00   2.79493284   0.00973017
6860.00   2.79729652   0.00970756
6862.00   2.79941368   0.00926620
6864.00   2.80007195   0.00932431
6866.00   2.80313325   0.00973678
6868.00   2.79893279   0.01014599
6870.00   2.78151870   0.01059021
6872.00   2.75923419   0.01096516
6874.00   2.74770832   0.01089103
6876.00   2.73803115   0.01035415
6878.00   2.74284840   0.01007028
6880.00   2.77315640   0.00976700
6882.00   2.78507018   0.00960929
6884.00   2.77105379   0.00962908
6886.00   2.75070024   0.00976017
6888.00   2.74201441   0.00997623
6890.00   2.73640966   0.01034245
6892.00   2.73978686   0.01037992
6894.00   2.76531816   0.01020610
6896.00   2.76591420   0.00995020
6898.00   2.73664427   0.00945795
6900.00   2.70652032   0.00900943
6902.00   2.69437218   0.00888078
6904.00   2.69070029   0.00895661
6906.00   2.68713808   0.00890783
6908.00   2.68502903   0.00866591
6910.00   2.68944335   0.00882755
6912.00   2.70301652   0.00947055
6914.00   2.71558213   0.00994050
6916.00   2.72767353   0.01006868
6918.00   2.73653197   0.01000289
6920.00   2.72174311   0.00974757
6922.00   2.67812157   0.00905305
6924.00   2.65283298   0.00874869
6926.00   2.62473869   0.00865613
6928.00   2.61370254   0.00864259
6930.00   2.63277650   0.00872132
6932.00   2.65929818   0.00885926
6934.00   2.65657377   0.00896046
6936.00   2.63660097   0.00905600
6938.00   2.61489415   0.00918757
6940.00   2.56707478   0.00940192
6942.00   2.55198669   0.00951361
6944.00   2.57797289   0.00954985
6946.00   2.61476469   0.00949640
6948.00   2.63929939   0.00928255
6950.00   2.66348672   0.00889396
6952.00   2.67193270   0.00875285
6954.00   2.66183305   0.00880403
6956.00   2.65845370   0.00880299
6958.00   2.65828848   0.00879553
6960.00   2.65792227   0.00878562
6962.00   2.65670776   0.00877657
6964.00   2.65486073   0.00876471
6966.00   2.64873481   0.00870435
6968.00   2.63475323   0.00846224
6970.00   2.62922692   0.00853538
6972.00   2.62641907   0.00885451
6974.00   2.62969017   0.00921208
6976.00   2.64471555   0.00967530
6978.00   2.66341901   0.01009854
6980.00   2.66460633   0.01001958
6982.00   2.65091109   0.00943305
6984.00   2.64538121   0.00908775
6986.00   2.64406514   0.00854734
6988.00   2.63796449   0.00842143
6990.00   2.62661219   0.00897706
6992.00   2.61133075   0.00963488
6994.00   2.58951640   0.00982566
6996.00   2.55556035   0.00982783
6998.00   2.55494928   0.00959115
7000.00   2.58534718   0.00868615
7002.00   2.60877109   0.00839599
7004.00   2.63409138   0.00881320
7006.00   2.65269423   0.00939631
7008.00   2.65497994   0.00992814
7010.00   2.64535809   0.01052992
7012.00   2.63249278   0.01054167
7014.00   2.60948420   0.00995464
7016.00   2.58917189   0.00954604
7018.00   2.56226444   0.00900546
7020.00   2.54516530   0.00867013
7022.00   2.54635310   0.00878695
7024.00   2.55950642   0.00917208
7026.00   2.57439852   0.00943774
7028.00   2.60514379   0.00993910
7030.00   2.61524820   0.00991752
7032.00   2.61388969   0.00935385
7034.00   2.60570502   0.00891048
7036.00   2.58987713   0.00860016
7038.00   2.56827283   0.00852321
7040.00   2.54545784   0.00917847
7042.00   2.51527929   0.01060551
7044.00   2.49901962   0.01104036
7046.00   2.49232793   0.01111553
7048.00   2.48838210   0.01083604
7050.00   2.48837543   0.00988609
7052.00   2.49079418   0.00876230
7054.00   2.49302649   0.00828726
7056.00   2.49597383   0.00824389
7058.00   2.50218606   0.00815745
7060.00   2.51516438   0.00828208
7062.00   2.52120709   0.00832763
7064.00   2.51758623   0.00829398
7066.00   2.51680064   0.00830711
7068.00   2.52743268   0.00836930
7070.00   2.54472232   0.00848482
7072.00   2.55720973   0.00907535
7074.00   2.57066727   0.01017364
7076.00   2.57924962   0.01090367
7078.00   2.58619738   0.01184560
7080.00   2.58693242   0.01215759
7082.00   2.58128762   0.01134443
7084.00   2.56860352   0.00985181
7086.00   2.54257083   0.00922476
7088.00   2.49108267   0.00911681
7090.00   2.47129154   0.00902405
7092.00   2.47106481   0.00917814
7094.00   2.47553301   0.00937612
7096.00   2.48668551   0.00965714
7098.00   2.50066304   0.00993619
7100.00   2.50767112   0.01008575
7102.00   2.51015735   0.01025692
7104.00   2.51789212   0.00989115
7106.00   2.53713536   0.00852101
7108.00   2.53924441   0.00787236
7110.00   2.51924348   0.00826728
7112.00   2.49593568   0.00881629
7114.00   2.48389030   0.00896800
7116.00   2.47637582   0.00900759
7118.00   2.46987391   0.00885957
7120.00   2.46404624   0.00827438
7122.00   2.46380568   0.00809455
7124.00   2.46769762   0.00830370
7126.00   2.47676325   0.00852970
7128.00   2.49592400   0.00860697
7130.00   2.52045131   0.00864737
7132.00   2.52433324   0.00878346
7134.00   2.50718713   0.00904769
7136.00   2.50201130   0.00915740
7138.00   2.49927235   0.00918418
7140.00   2.49870944   0.00916895
7142.00   2.50389647   0.00908058
7144.00   2.50893307   0.00897400
7146.00   2.49887347   0.00901878
7148.00   2.47341871   0.00926701
7150.00   2.46048212   0.00917526
7152.00   2.44853735   0.00864071
7154.00   2.44615746   0.00843290
7156.00   2.45782256   0.00873182
7158.00   2.47340035   0.00911426
7160.00   2.48094773   0.00920557
7162.00   2.48460126   0.00916848
7164.00   2.49294949   0.00908540
7166.00   2.51868939   0.00880103
7168.00   2.51339793   0.00870651
7170.00   2.47206020   0.00871371
7172.00   2.42481327   0.00889604
7174.00   2.38653255   0.00940416
7176.00   2.34934258   0.01012019
7178.00   2.33912659   0.01032517
7180.00   2.35815954   0.01027977
7182.00   2.36952710   0.01003645
7184.00   2.38937163   0.00932042
7186.00   2.39916563   0.00873409
7188.00   2.38530397   0.00861468
7190.00   2.36151814   0.00873777
7192.00   2.36418295   0.00876173
7194.00   2.38871217   0.00886738
7196.00   2.40181208   0.00885209
7198.00   2.41753364   0.00861102
7200.00   2.42433953   0.00861254
7202.00   2.41584873   0.00902100
7204.00   2.40319967   0.00952703
7206.00   2.40405107   0.00979353
7208.00   2.41407514   0.01004395
7210.00   2.41771078   0.00989083
7212.00   2.42122626   0.00908023
7214.00   2.42050552   0.00867413
7216.00   2.41095901   0.00887534
7218.00   2.40357971   0.00911275
7220.00   2.41125417   0.00889045
7222.00   2.43031621   0.00836459
7224.00   2.43248630   0.00822985
7226.00   2.42089438   0.00833595
7228.00   2.41563630   0.00846454
7230.00   2.41459560   0.00864090
7232.00   2.41324162   0.00889722
7234.00   2.40907097   0.00926622
7236.00   2.40367103   0.00970684
7238.00   2.40107155   0.01005388
7240.00   2.40641475   0.01049555
7242.00   2.39764977   0.01061784
7244.00   2.37253976   0.01046932
7246.00   2.35383916   0.01025795
7248.00   2.34817481   0.01000967
7250.00   2.34905028   0.00971154
7252.00   2.35068226   0.00945102
7254.00   2.35753798   0.00919444
7256.00   2.36010504   0.00894509
7258.00   2.36344337   0.00848635
7260.00   2.36128402   0.00844948
7262.00   2.35192227   0.00897431
7264.00   2.33908796   0.00970065
7266.00   2.32446456   0.01038660
7268.00   2.30197835   0.01125682
7270.00   2.30865097   0.01138133
7272.00   2.35206294   0.01060928
7274.00   2.37185717   0.01041557
7276.00   2.36873245   0.01103116
7278.00   2.36057997   0.01146339
7280.00   2.36004758   0.01097007
7282.00   2.36152530   0.00980274
7284.00   2.34525514   0.00937206
7286.00   2.30122256   0.00940472
7288.00   2.28405690   0.00941590
7290.00   2.28257012   0.00966609
7292.00   2.29304051   0.00977063
7294.00   2.32169867   0.00948401
7296.00   2.36078787   0.00899743
7298.00   2.37190914   0.00887827
7300.00   2.36340666   0.00901922
7302.00   2.35551906   0.00910746
7304.00   2.33515501   0.00922354
7306.00   2.32214236   0.00939727
7308.00   2.32339263   0.00973270
7310.00   2.32861590   0.01003738
7312.00   2.32272363   0.00993268
7314.00   2.30879712   0.00939671
7316.00   2.30147839   0.00926152
7318.00   2.28963614   0.00927808
7320.00   2.29288459   0.00944215
7322.00   2.31537151   0.00986005
7324.00   2.34507442   0.01027180
7326.00   2.37579441   0.01044598
7328.00   2.41597128   0.01051400
7330.00   2.41018581   0.01033987
7332.00   2.34989238   0.00957153
7334.00   2.31986451   0.00940974
7336.00   2.30537415   0.00998757
7338.00   2.30542397   0.01047930
7340.00   2.32813644   0.01047975
7342.00   2.36831164   0.01023043
7344.00   2.38215089   0.00994687
7346.00   2.38308501   0.00937279
7348.00   2.37753391   0.00905548
7350.00   2.35712457   0.00882825
7352.00   2.33975577   0.00879939
7354.00   2.33083797   0.00914642
7356.00   2.32600522   0.00961323
7358.00   2.32314658   0.00954501
7360.00   2.32323480   0.00881312
7362.00   2.32557416   0.00890463
7364.00   2.33666706   0.00957090
7366.00   2.33838367   0.01017052
7368.00   2.32263398   0.01086105
7370.00   2.30505848   0.01136367
7372.00   2.30766177   0.01113164
7374.00   2.32529688   0.01018896
7376.00   2.33329439   0.00963720
7378.00   2.33981991   0.00909150
7380.00   2.34396482   0.00869027
7382.00   2.34519625   0.00840506
7384.00   2.34497261   0.00832268
7386.00   2.34352899   0.00853546
7388.00   2.34026241   0.00899143
7390.00   2.34398580   0.00952314
7392.00   2.36064053   0.01061831
7394.00   2.36144042   0.01078671
7396.00   2.34741545   0.00998107
7398.00   2.33169723   0.00917180
7400.00   2.32055044   0.00893742
7402.00   2.30983210   0.00897033
7404.00   2.29417038   0.00895038
7406.00   2.26778936   0.00885382
7408.00   2.25683236   0.00915347
7410.00   2.25321126   0.00989171
7412.00   2.25804567   0.01045938
7414.00   2.27592444   0.01091984
7416.00   2.29938650   0.01116340
7418.00   2.31090450   0.01063419
7420.00   2.31276894   0.00889268
7422.00   2.32604241   0.00840119
7424.00   2.35619831   0.00890431
7426.00   2.36779022   0.00926614
7428.00   2.35678291   0.00959957
7430.00   2.33541989   0.00981928
7432.00   2.31271958   0.00960075
7434.00   2.28284836   0.00890117
7436.00   2.26120448   0.00907677
7438.00   2.23059344   0.01016270
7440.00   2.22912049   0.01055804
7442.00   2.26636696   0.01048698
7444.00   2.30480361   0.01016222
7446.00   2.31903625   0.00953203
7448.00   2.32208300   0.00853829
7450.00   2.33136463   0.00817442
7452.00   2.34872985   0.00829265
7454.00   2.34821296   0.00845811
7456.00   2.32889414   0.00887792
7458.00   2.31024837   0.00925309
7460.00   2.29717779   0.00956286
7462.00   2.28708267   0.00979359
7464.00   2.28651142   0.00964696
7466.00   2.30378795   0.00893836
7468.00   2.29843116   0.00871996
7470.00   2.27762675   0.00873183
7472.00   2.25553465   0.00886962
7474.00   2.22715235   0.00917750
7476.00   2.20230770   0.00954732
7478.00   2.20250869   0.00980012
7480.00   2.22156644   0.01004263
7482.00   2.24515772   0.01012262
7484.00   2.29088545   0.01014375
7486.00   2.31913424   0.00995098
7488.00   2.33449841   0.00932959
7490.00   2.33547997   0.00872163
7492.00   2.31373930   0.00864274
7494.00   2.27014899   0.00889596
7496.00   2.24335575   0.00931835
7498.00   2.21833420   0.01043726
7500.00   2.20187545   0.01060671
7502.00   2.19428515   0.00974343
7504.00   2.19143367   0.00889083
7506.00   2.19171739   0.00880340
7508.00   2.19594574   0.00908454
7510.00   2.20201874   0.00905997
7512.00   2.20630980   0.00888198
7514.00   2.22351050   0.00884311
7516.00   2.25877762   0.00880342
7518.00   2.28683424   0.00892387
7520.00   2.30239224   0.00933395
7522.00   2.30965161   0.00982345
7524.00   2.30664134   0.01000169
7526.00   2.28882360   0.01005475
7528.00   2.27888918   0.00989987
7530.00   2.26788902   0.00929413
7532.00   2.26165581   0.00897389
7534.00   2.26567745   0.00917584
7536.00   2.26857853   0.00943480
7538.00   2.25360394   0.00920859
7540.00   2.22310829   0.00857107
7542.00   2.21106267   0.00849918
7544.00   2.21879387   0.00893159
7546.00   2.20821786   0.00911099
7548.00   2.17448521   0.00905119
7550.00   2.14156032   0.00899443
7552.00   2.12773323   0.00907132
7554.00   2.12452006   0.00921210
7556.00   2.11080265   0.00951969
7558.00   2.08320618   0.01023400
7560.00   2.07632995   0.01039781
7562.00   2.08738780   0.01011645
7564.00   2.10263944   0.00974090
7566.00   2.11968040   0.00926541
7568.00   2.13872552   0.00874897
7570.00   2.14677691   0.00897983
7572.00   2.14249396   0.01025627
7574.00   2.14768982   0.01034813
7576.00   2.16533303   0.00957493
7578.00   2.16884327   0.00894283
7580.00   2.14664459   0.00870384
7582.00   2.11689639   0.00860934
7584.00   2.10637093   0.00845535
7586.00   2.09932947   0.00822363
7588.00   2.12104845   0.00842470
7590.00   2.18191862   0.00855260
7592.00   2.22712874   0.00955801
7594.00   2.27268457   0.01143683
7596.00   2.29328823   0.01331914
7598.00   2.24952459   0.01486679
7600.00   2.15105867   0.01642290
7602.00   2.08019137   0.01697995
7604.00   1.99639845   0.01665723
7606.00   1.94195580   0.01649036
7608.00   1.90435636   0.01655550
7610.00   1.89545786   0.01620796
7612.00   1.92997003   0.01475980
7614.00   1.99885011   0.01231811
7616.00   2.05504775   0.01120770
7618.00   2.14358783   0.01120212
7620.00   2.16963601   0.01123723
7622.00   2.14644957   0.01192058
7624.00   2.10616374   0.01236715
7626.00   2.04085612   0.01229850
7628.00   1.96780372   0.01200943
7630.00   1.96160638   0.01189430
7632.00   2.01636863   0.01184922
7634.00   2.04210758   0.01169592
7636.00   2.07765198   0.01149083
7638.00   2.08977389   0.01121674
7640.00   2.06761956   0.01073127
7642.00   2.03257656   0.01028668
7644.00   2.00875783   0.01037229
7646.00   1.98080003   0.01092756
7648.00   1.98158693   0.01105920
7650.00   2.01051021   0.01104008
7652.00   2.03721976   0.01093288
7654.00   2.06814933   0.01065820
7656.00   2.09708977   0.01036598
7658.00   2.11742568   0.01022065
7660.00   2.13254356   0.01016084
7662.00   2.13854051   0.00995970
7664.00   2.13273573   0.00963759
7666.00   2.12806368   0.00935513
7668.00   2.11909008   0.00898858
7670.00   2.11249375   0.00876424
7672.00   2.10933375   0.00870489
7674.00   2.10987496   0.00884791
7676.00   2.12579370   0.00968002
7678.00   2.16823363   0.01150633
7680.00   2.18488979   0.01214693
7682.00   2.19313550   0.01226984
7684.00   2.18760133   0.01217052
7686.00   2.15983844   0.01183053
7688.00   2.12331629   0.01128725
7690.00   2.10678029   0.01074267
7692.00   2.10070658   0.00989737
7694.00   2.09681940   0.00969273
7696.00   2.10441971   0.01022973
7698.00   2.10355139   0.01043849
7700.00   2.08830500   0.01005294
7702.00   2.07335377   0.00977699
7704.00   2.07412910   0.01046831
7706.00   2.08467174   0.01179602
7708.00   2.09802890   0.01241450
7710.00   2.12027264   0.01303356
7712.00   2.13948607   0.01300410
7714.00   2.16068554   0.01203611
7716.00   2.17650986   0.01098225
7718.00   2.18152261   0.01061743
7720.00   2.17854524   0.01061759
7722.00   2.16957450   0.01028634
7724.00   2.14636445   0.00969261
7726.00   2.13383007   0.00935620
7728.00   2.12266374   0.00920787
7730.00   2.12092519   0.00913999
7732.00   2.13764119   0.00918281
7734.00   2.16245532   0.00927602
7736.00   2.16425586   0.00910162
7738.00   2.14904833   0.00839677
7740.00   2.13810325   0.00856089
7742.00   2.11936116   0.00936272
7744.00   2.10896063   0.01014307
7746.00   2.11125541   0.01102712
7748.00   2.11871481   0.01176929
7750.00   2.12231755   0.01189078
7752.00   2.12575316   0.01154897
7754.00   2.12905741   0.01117608
7756.00   2.13566184   0.01042884
7758.00   2.13512063   0.00983928
7760.00   2.12385798   0.00940223
7762.00   2.11220288   0.00907156
7764.00   2.10906649   0.00886503
7766.00   2.11040568   0.00880260
7768.00   2.11469221   0.00869929
7770.00   2.12329960   0.00840686
7772.00   2.13346553   0.00860181
7774.00   2.14931011   0.00941073
7776.00   2.16190767   0.01006150
7778.00   2.16786051   0.01027847
7780.00   2.16876745   0.01027016
7782.00   2.15799189   0.01007097
7784.00   2.11965728   0.00916168
7786.00   2.11513019   0.00918192
7788.00   2.14113379   0.01008045
7790.00   2.15928411   0.01068835
7792.00   2.16084957   0.01072368
7794.00   2.15364671   0.01057629
7796.00   2.13838410   0.01074563
7798.00   2.10364199   0.01111238
7800.00   2.09766698   0.01132465
7802.00   2.11949658   0.01167157
7804.00   2.12860060   0.01163449
7806.00   2.11571360   0.01092271
7808.00   2.10226655   0.01008445
7810.00   2.11321068   0.00998370
7812.00   2.14335322   0.01037436
7814.00   2.15289307   0.01062829
7816.00   2.15369868   0.01094931
7818.00   2.14886689   0.01131223
7820.00   2.13353896   0.01202638
7822.00   2.11806297   0.01235283
7824.00   2.10980201   0.01159222
7826.00   2.10501313   0.00988361
7828.00   2.10598779   0.00913621
7830.00   2.11680484   0.00894856
7832.00   2.12156487   0.00892771
7834.00   2.12003660   0.00917025
7836.00   2.12258339   0.00966977
7838.00   2.13654113   0.01064117
7840.00   2.15507436   0.01169908
7842.00   2.15869999   0.01167208
7844.00   2.15194178   0.01040700
7846.00   2.14430189   0.01006345
7848.00   2.13313556   0.01017920
7850.00   2.11791253   0.01035955
7852.00   2.09241104   0.01064102
7854.00   2.06763792   0.01091895
7856.00   2.06560349   0.01087969
7858.00   2.08073235   0.01057135
7860.00   2.09633851   0.01039393
7862.00   2.13060403   0.01016344
7864.00   2.14464903   0.01005726
7866.00   2.13447952   0.01017281
7868.00   2.11556315   0.01027509
7870.00   2.09851170   0.01007500
7872.00   2.07670617   0.00961664
7874.00   2.06907272   0.00969150
7876.00   2.06956840   0.01007804
7878.00   2.07750583   0.01061993
7880.00   2.10458183   0.01171976
7882.00   2.12237477   0.01234662
7884.00   2.10932183   0.01176597
7886.00   2.07822394   0.01035786
7888.00   2.06791997   0.01026825
7890.00   2.07623339   0.01149427
7892.00   2.06482625   0.01163517
7894.00   2.03109670   0.01119432
7896.00   2.00973201   0.01059476
7898.00   2.01259327   0.00974348
7900.00   2.02849245   0.00877426
7902.00   2.04486561   0.00869524
7904.00   2.07224393   0.00944115
7906.00   2.08727384   0.00988805
7908.00   2.10086632   0.01041255
7910.00   2.10199833   0.01088733
7912.00   2.08681917   0.01127390
7914.00   2.06303501   0.01166786
7916.00   2.03785038   0.01226076
7918.00   2.00239968   0.01316626
7920.00   1.99376225   0.01301311
7922.00   2.01168895   0.01169315
7924.00   2.02050161   0.01075121
7926.00   2.02084899   0.01008137
7928.00   2.02150178   0.00965209
7930.00   2.02978754   0.00961370
7932.00   2.04320860   0.00994334
7934.00   2.04026508   0.01006789
7936.00   2.02362609   0.01035185
7938.00   2.00823879   0.01024600
7940.00   1.98259127   0.00960857
7942.00   1.96770704   0.00905171
7944.00   1.97617376   0.00894410
7946.00   1.99869108   0.00907174
7948.00   2.01530051   0.00912882
7950.00   2.04835558   0.00927029
7952.00   2.04602432   0.00934089
7954.00   2.00826454   0.00921261
7956.00   1.97772694   0.00937109
7958.00   1.96331513   0.01007518
7960.00   1.95500433   0.01085628
7962.00   1.94631314   0.01104518
7964.00   1.93897653   0.01086883
7966.00   1.93685818   0.01067922
7968.00   1.94239283   0.01018457
7970.00   1.94479847   0.00989205
7972.00   1.94222653   0.00989740
7974.00   1.93990028   0.00997490
7976.00   1.94342303   0.00991508
7978.00   1.95154500   0.00979690
7980.00   1.95370781   0.00972900
7982.00   1.94557095   0.00964444
7984.00   1.95161283   0.00964343
7986.00   1.97640061   0.00970264
7988.00   1.99914956   0.00983725
7990.00   2.00713634   0.01012105
7992.00   2.00702047   0.01050258
7994.00   2.00229979   0.01052598
7996.00   1.98358428   0.01022659
7998.00   1.97787440   0.01002264
8000.00   1.98251283   0.00970562
8002.00   1.98639345   0.00954288
8004.00   1.98491716   0.00973509
8006.00   1.98219407   0.01006753
8008.00   1.98482788   0.01003857
8010.00   1.99425650   0.00967619
8012.00   1.99552298   0.00959130
8014.00   1.99764657   0.00935289
8016.00   1.98773408   0.00967769
8018.00   1.95535290   0.01101817
8020.00   1.91966712   0.01227811
8022.00   1.91161740   0.01220080
8024.00   1.92403817   0.01100662
8026.00   1.92532742   0.01065873
8028.00   1.92245221   0.01082481
8030.00   1.92466414   0.01073004
8032.00   1.93580019   0.01037799
8034.00   1.94511104   0.00991570
8036.00   1.94315064   0.00937813
8038.00   1.93409407   0.00868842
8040.00   1.92149198   0.00837214
8042.00   1.89016676   0.00803375
8044.00   1.88498127   0.00849454
8046.00   1.90822673   0.01013021
8048.00   1.93118596   0.01117140
8050.00   1.94053173   0.01090375
8052.00   1.94406056   0.00990271
8054.00   1.94376850   0.00967368
8056.00   1.93798232   0.00989020
8058.00   1.92993343   0.00993990
8060.00   1.91953087   0.00986700
8062.00   1.90450656   0.01002800
8064.00   1.88029659   0.01067151
8066.00   1.85382080   0.01138764
8068.00   1.84134829   0.01145963
8070.00   1.83417594   0.01103470
8072.00   1.84280157   0.01078384
8074.00   1.87664771   0.01043904
8076.00   1.89861357   0.01016962
8078.00   1.90873396   0.01006174
8080.00   1.90969968   0.00994468
8082.00   1.89759457   0.00957268
8084.00   1.87047374   0.00895357
8086.00   1.85510516   0.00862416
8088.00   1.84245336   0.00843574
8090.00   1.83366406   0.00837960
8092.00   1.82768703   0.00854299
8094.00   1.82659674   0.00872788
8096.00   1.83317637   0.00880204
8098.00   1.84625125   0.00883488
8100.00   1.85551322   0.00881591
8102.00   1.86501157   0.00859477
8104.00   1.87308216   0.00867387
8106.00   1.87815630   0.00910619
8108.00   1.88536060   0.00941377
8110.00   1.89876461   0.00940116
8112.00   1.91440344   0.00924096
8114.00   1.92062771   0.00922537
8116.00   1.92314243   0.00931647
8118.00   1.91682792   0.00926270
8120.00   1.89427412   0.00908644
8122.00   1.88069153   0.00893002
8124.00   1.88196886   0.00878052
8126.00   1.88937032   0.00867462
8128.00   1.89448535   0.00874261
8130.00   1.90480113   0.00899377
8132.00   1.89909613   0.00909511
8134.00   1.87574875   0.00913784
8136.00   1.85964656   0.00916890
8138.00   1.85175931   0.00912216
8140.00   1.84541035   0.00913330
8142.00   1.83549702   0.00939018
8144.00   1.82368052   0.00983922
8146.00   1.81714058   0.00997092
8148.00   1.81287861   0.00975193
8150.00   1.81286383   0.00985591
8152.00   1.82012832   0.01028227
8154.00   1.82629478   0.01069011
8156.00   1.82541847   0.01101143
8158.00   1.82105637   0.01127557
8160.00   1.82271004   0.01096882
8162.00   1.83371592   0.00973134
8164.00   1.83174455   0.00918073
8166.00   1.81711543   0.00907617
8168.00   1.80526233   0.00906856
8170.00   1.80033731   0.00900124
8172.00   1.79888523   0.00904570
8174.00   1.79968870   0.00950265
8176.00   1.80434573   0.01034510
8178.00   1.80821002   0.01099164
8180.00   1.81010020   0.01163650
8182.00   1.81754029   0.01224194
8184.00   1.83801770   0.01291576
8186.00   1.85666144   0.01345854
8188.00   1.85179877   0.01357412
8190.00   1.82947946   0.01332888
8192.00   1.80961633   0.01323405
8194.00   1.77603984   0.01305432
8196.00   1.75886381   0.01300813
8198.00   1.75412452   0.01330820
8200.00   1.76203668   0.01340071
8202.00   1.79152238   0.01272508
8204.00   1.84109056   0.01139746
8206.00   1.84761834   0.01069833
8208.00   1.81762075   0.01031491
8210.00   1.79945421   0.01007230
8212.00   1.77677071   0.01001018
8214.00   1.76387751   0.01017797
8216.00   1.77218366   0.01081514
8218.00   1.79232311   0.01160227
8220.00   1.79678965   0.01131415
8222.00   1.79394472   0.00941946
8224.00   1.78942215   0.00903681
8226.00   1.77720428   0.00982947
8228.00   1.76939797   0.01041829
8230.00   1.76836216   0.01062895
8232.00   1.77143109   0.01071048
8234.00   1.77904546   0.01073784
8236.00   1.80168438   0.01072308
8238.00   1.78859448   0.01047254
8240.00   1.73058295   0.00987622
8242.00   1.70185292   0.00937017
8244.00   1.71162081   0.00893030
8246.00   1.73061526   0.00858236
8248.00   1.73440850   0.00843200
8250.00   1.73432863   0.00846433
8252.00   1.72596443   0.00853869
8254.00   1.70567858   0.00868315
8256.00   1.68945837   0.00894311
8258.00   1.66829658   0.00949411
8260.00   1.65741467   0.00985446
8262.00   1.67309034   0.00960222
8264.00   1.70648599   0.00895163
8266.00   1.71101940   0.00923219
8268.00   1.69399297   0.01057663
8270.00   1.68493760   0.01084273
8272.00   1.67755044   0.01021643
8274.00   1.66849875   0.00978489
8276.00   1.65587342   0.00998728
8278.00   1.64173794   0.01047782
8280.00   1.63123167   0.01094398
8282.00   1.62437737   0.01138213
8284.00   1.61364627   0.01218734
8286.00   1.60004973   0.01388864
8288.00   1.58719528   0.01442853
8290.00   1.57609046   0.01322093
8292.00   1.56491208   0.01133662
8294.00   1.55245721   0.01077742
8296.00   1.54245532   0.01087455
8298.00   1.51620376   0.01164745
8300.00   1.45024228   0.01402241
8302.00   1.43405437   0.01464014
8304.00   1.48434424   0.01335625
8306.00   1.54185510   0.01154303
8308.00   1.55830979   0.01065152
8310.00   1.55524719   0.01017407
8312.00   1.55034339   0.00960125
8314.00   1.53130066   0.00897113
8316.00   1.51856565   0.00878999
8318.00   1.50682652   0.00902358
8320.00   1.49883378   0.00954712
8322.00   1.49473262   0.01049773
8324.00   1.49500048   0.01160832
8326.00   1.50900865   0.01172060
8328.00   1.55747688   0.01054350
8330.00   1.55919456   0.01060823
8332.00   1.52276874   0.01116238
8334.00   1.48846412   0.01221945
8336.00   1.45756269   0.01421297
8338.00   1.43385434   0.01607408
8340.00   1.44678092   0.01600053
8342.00   1.50056922   0.01405878
8344.00   1.52593195   0.01335956
8346.00   1.54037392   0.01321041
8348.00   1.55512094   0.01304393
8350.00   1.57316673   0.01298938
8352.00   1.58747327   0.01283266
8354.00   1.59027839   0.01211298
8356.00   1.58426905   0.01078337
8358.00   1.57449913   0.00997245
8360.00   1.54605389   0.00941349
8362.00   1.54026830   0.00900732
8364.00   1.55714417   0.00881731
8366.00   1.58196056   0.00881151
8368.00   1.60997045   0.00899840
8370.00   1.64412332   0.00936903
8372.00   1.65439820   0.00955855
8374.00   1.63918626   0.00963158
8376.00   1.63762558   0.00980558
8378.00   1.64389110   0.01016757
8380.00   1.64856696   0.01034168
8382.00   1.64862573   0.01011786
8384.00   1.64610064   0.00968172
8386.00   1.64109290   0.00952556
8388.00   1.62918639   0.00940388
8390.00   1.62639272   0.00958107
8392.00   1.63299286   0.01010062
8394.00   1.63466322   0.01056092
8396.00   1.62702322   0.01100221
8398.00   1.61703992   0.01134811
8400.00   1.61392534   0.01136264
8402.00   1.61478102   0.01112553
8404.00   1.61527765   0.01075043
8406.00   1.61194730   0.00975319
8408.00   1.61932898   0.00938120
8410.00   1.64163542   0.00996570
8412.00   1.66688311   0.01063118
8414.00   1.68574679   0.01069505
8416.00   1.70383203   0.01044791
8418.00   1.70606208   0.01041249
8420.00   1.68901682   0.00986530
8422.00   1.67949331   0.01055459
8424.00   1.67156148   0.01272003
8426.00   1.66732991   0.01429408
8428.00   1.67082489   0.01466601
8430.00   1.67930281   0.01440659
8432.00   1.67784417   0.01372116
8434.00   1.66993332   0.01181091
8436.00   1.66155684   0.01062135
8438.00   1.64420235   0.00976065
8440.00   1.63647842   0.00915662
8442.00   1.64808559   0.00882219
8444.00   1.66770172   0.00882300
8446.00   1.67334652   0.00921264
8448.00   1.67453647   0.01026177
8450.00   1.66664076   0.01054220
8452.00   1.64372921   0.01026818
8454.00   1.62712181   0.01020304
8456.00   1.61390340   0.01029816
8458.00   1.60911155   0.01062527
8460.00   1.62668860   0.01151278
8462.00   1.66767979   0.01297294
8464.00   1.68635833   0.01328017
8466.00   1.70234549   0.01280962
8468.00   1.70040762   0.01233499
8470.00   1.67248929   0.01160938
8472.00   1.64181685   0.01091009
8474.00   1.62551475   0.01064296
8476.00   1.61512995   0.01067862
8478.00   1.61274159   0.01032141
8480.00   1.61973035   0.00953816
8482.00   1.62931645   0.00911122
8484.00   1.64603925   0.00890637
8486.00   1.66215193   0.00890978
8488.00   1.67543852   0.00922241
8490.00   1.68677282   0.00970773
8492.00   1.69054186   0.00982070
8494.00   1.68638074   0.00959080
8496.00   1.68266869   0.00964709
8498.00   1.67574191   0.00984596
8500.00   1.66889334   0.01005948
8502.00   1.66258633   0.01029236
8504.00   1.65637255   0.01052178
8506.00   1.65007949   0.01067387
8508.00   1.64177966   0.01083757
8510.00   1.64110005   0.01074191
8512.00   1.64833796   0.01041674
8514.00   1.65368748   0.00999853
8516.00   1.65542686   0.00932263
8518.00   1.65858233   0.00865788
8520.00   1.66849911   0.00845813
8522.00   1.68389070   0.00862262
8524.00   1.69479394   0.00861753
8526.00   1.70333982   0.00856567
8528.00   1.71311843   0.00863236
8530.00   1.72571206   0.00882975
8532.00   1.73579276   0.00904954
8534.00   1.74042463   0.00922894
8536.00   1.74114943   0.00940271
8538.00   1.73660505   0.00961717
8540.00   1.72420669   0.00978904
8542.00   1.71409249   0.01013151
8544.00   1.69919825   0.01085941
8546.00   1.69136930   0.01120323
8548.00   1.69612503   0.01078721
8550.00   1.70812774   0.00999638
8552.00   1.71836865   0.00984605
8554.00   1.73634326   0.01030735
8556.00   1.73825836   0.01010029
8558.00   1.72188663   0.00926642
8560.00   1.71423566   0.00869300
8562.00   1.72150838   0.00860123
8564.00   1.73231363   0.00871356
8566.00   1.73307836   0.00876143
8568.00   1.72618663   0.00882785
8570.00   1.73063457   0.00906918
8572.00   1.74307823   0.00963884
8574.00   1.75530708   0.00987172
8576.00   1.77488518   0.00975305
8578.00   1.78684211   0.00952693
8580.00   1.77375078   0.00933932
8582.00   1.74154842   0.00910077
8584.00   1.72629595   0.00909591
8586.00   1.71213317   0.00938728
8588.00   1.71108162   0.00946824
8590.00   1.72941065   0.00934185
8592.00   1.74493694   0.00927521
8594.00   1.74484217   0.00933192
8596.00   1.73770356   0.00949474
8598.00   1.74016154   0.01006873
8600.00   1.75870645   0.01150280
8602.00   1.75123525   0.01168367
8604.00   1.71468914   0.01076871
8606.00   1.69092333   0.01010274
8608.00   1.69150746   0.01016968
8610.00   1.70357418   0.01051104
8612.00   1.71437061   0.01066972
8614.00   1.73257017   0.01093578
8616.00   1.74160111   0.01081147
8618.00   1.74603784   0.01016395
8620.00   1.74745071   0.00978901
8622.00   1.74337828   0.00980830
8624.00   1.73873436   0.00996503
8626.00   1.74106646   0.01006204
8628.00   1.74912715   0.01020284
8630.00   1.74726129   0.01024232
8632.00   1.73611093   0.01021138
8634.00   1.72953284   0.01016385
8636.00   1.72478139   0.00998363
8638.00   1.72332001   0.00992443
8640.00   1.72919238   0.01027683
8642.00   1.74062407   0.01087748
8644.00   1.73803449   0.01087741
8646.00   1.72519433   0.01014862
8648.00   1.71188784   0.01008154
8650.00   1.69173265   0.01061976
8652.00   1.67522299   0.01102684
8654.00   1.66745460   0.01105618
8656.00   1.66415286   0.01091887
8658.00   1.65770459   0.01083724
8660.00   1.64139330   0.01063189
8662.00   1.65037239   0.01065743
8664.00   1.69035554   0.01100975
8666.00   1.71535563   0.01111096
8668.00   1.71707094   0.01074798
8670.00   1.70789838   0.01026450
8672.00   1.69708383   0.01024348
8674.00   1.67688906   0.01060310
8676.00   1.66856885   0.01056538
8678.00   1.66651261   0.01024668
8680.00   1.66747034   0.01002506
8682.00   1.67582929   0.00992415
8684.00   1.68261814   0.00982950
8686.00   1.67763293   0.00963262
8688.00   1.66456103   0.00935355
8690.00   1.65507257   0.00928609
8692.00   1.64528692   0.00939533
8694.00   1.63520718   0.00949441
8696.00   1.62288833   0.00953508
8698.00   1.61315048   0.00972359
8700.00   1.60753930   0.01030916
8702.00   1.60544562   0.01106184
8704.00   1.61343026   0.01102005
8706.00   1.63751388   0.01012637
8708.00   1.64976048   0.00970799
8710.00   1.65570605   0.00944549
8712.00   1.66116166   0.00927547
8714.00   1.66933441   0.00923813
8716.00   1.67630053   0.00927133
8718.00   1.67353129   0.00914188
8720.00   1.65914738   0.00874936
8722.00   1.65465426   0.00886768
8724.00   1.65701103   0.00955859
8726.00   1.65595913   0.00990222
8728.00   1.65088046   0.00983828
8730.00   1.64341962   0.00959381
8732.00   1.63457489   0.00927291
8734.00   1.62497187   0.00864934
8736.00   1.60756028   0.00882846
8738.00   1.57679176   0.00991809
8740.00   1.55678856   0.01037225
8742.00   1.54334295   0.01035194
8744.00   1.53868115   0.01011667
8746.00   1.54783285   0.00966020
8748.00   1.56899619   0.00890067
8750.00   1.58454502   0.00896189
8752.00   1.60386121   0.00926296
8754.00   1.61596417   0.01040905
8756.00   1.62437689   0.01255430
8758.00   1.62646210   0.01418639
8760.00   1.61714280   0.01512220
8762.00   1.60161316   0.01566743
8764.00   1.60150051   0.01549275
8766.00   1.61704147   0.01410601
8768.00   1.61974216   0.01356584
8770.00   1.61957598   0.01322389
8772.00   1.61230099   0.01330758
8774.00   1.59242153   0.01414650
8776.00   1.56902003   0.01510678
8778.00   1.56014228   0.01517624
8780.00   1.56134248   0.01478060
8782.00   1.55927885   0.01393563
8784.00   1.55851507   0.01174618
8786.00   1.55784047   0.01032830
8788.00   1.55915678   0.01035399
8790.00   1.55859232   0.01079025
8792.00   1.55051768   0.01073442
8794.00   1.53587663   0.01060086
8796.00   1.52943373   0.01028082
8798.00   1.52358806   0.00955057
8800.00   1.52700174   0.00914937
8802.00   1.54243481   0.00907448
8804.00   1.55950272   0.00910453
8806.00   1.57288980   0.00914274
8808.00   1.58537042   0.00923834
8810.00   1.59256387   0.00927412
8812.00   1.59510410   0.00914309
8814.00   1.59597075   0.00933695
8816.00   1.59046531   0.00953919
8818.00   1.58906198   0.01020404
8820.00   1.59824371   0.01139796
8822.00   1.61089396   0.01286133
8824.00   1.61061382   0.01444018
8826.00   1.59958899   0.01668990
8828.00   1.59352183   0.01739768
8830.00   1.59144807   0.01731375
8832.00   1.58248556   0.01670100
8834.00   1.56286776   0.01510774
8836.00   1.53971124   0.01305789
8838.00   1.52172935   0.01206869
8840.00   1.50438190   0.01192036
8842.00   1.49319279   0.01140131
8844.00   1.48864686   0.01081845
8846.00   1.48389351   0.01042749
8848.00   1.47538519   0.01025866
8850.00   1.47292352   0.01023489
8852.00   1.48711264   0.01030171
8854.00   1.51443076   0.01048457
8856.00   1.52977586   0.01075867
8858.00   1.54632556   0.01121086
8860.00   1.54886186   0.01155156
8862.00   1.54137290   0.01171799
8864.00   1.52191114   0.01204106
8866.00   1.48000860   0.01285759
8868.00   1.42564535   0.01381483
8870.00   1.41463256   0.01374400
8872.00   1.44775748   0.01259707
8874.00   1.45443189   0.01194224
8876.00   1.44095516   0.01086353
8878.00   1.44656813   0.01064809
8880.00   1.48479974   0.01184889
8882.00   1.53882563   0.01355814
8884.00   1.58694327   0.01489462
8886.00   1.65175879   0.01675445
8888.00   1.66937089   0.01674175
8890.00   1.64597321   0.01466062
8892.00   1.62147379   0.01319959
8894.00   1.59267175   0.01277254
8896.00   1.56227434   0.01275363
8898.00   1.53878903   0.01275764
8900.00   1.51803780   0.01304198
8902.00   1.50373781   0.01290916
8904.00   1.50072861   0.01238851
8906.00   1.49011600   0.01206576
8908.00   1.46373296   0.01177711
8910.00   1.44804549   0.01172164
8912.00   1.46622765   0.01208320
8914.00   1.50693238   0.01274197
8916.00   1.52190852   0.01346679
8918.00   1.52933943   0.01478152
8920.00   1.52424586   0.01512017
8922.00   1.49741852   0.01479436
8924.00   1.47627878   0.01412929
8926.00   1.47237396   0.01299392
8928.00   1.47639740   0.01145000
8930.00   1.47601438   0.01060764
8932.00   1.47042572   0.01010200
8934.00   1.47961903   0.01023481
8936.00   1.51448596   0.01140415
8938.00   1.52711451   0.01212000
8940.00   1.50303721   0.01225057
8942.00   1.46624315   0.01214500
8944.00   1.44631612   0.01201074
8946.00   1.42735827   0.01160154
8948.00   1.43027449   0.01176488
8950.00   1.46200323   0.01235244
8952.00   1.48167157   0.01294610
8954.00   1.48662090   0.01353325
8956.00   1.49119878   0.01420927
8958.00   1.51038933   0.01522243
8960.00   1.54130709   0.01656260
8962.00   1.53502476   0.01627386
8964.00   1.48480463   0.01385678
8966.00   1.46413565   0.01267700
8968.00   1.46976423   0.01283255
8970.00   1.47418082   0.01298688
8972.00   1.46026039   0.01238212
8974.00   1.43887866   0.01142240
8976.00   1.43968236   0.01107909
8978.00   1.45564854   0.01111780
8980.00   1.47503614   0.01131524
8982.00   1.51861250   0.01184944
8984.00   1.53878820   0.01235375
8986.00   1.51544940   0.01285425
8988.00   1.47155213   0.01326678
8990.00   1.44372725   0.01317196
8992.00   1.40387499   0.01236113
8994.00   1.41123855   0.01237699
8996.00   1.47669065   0.01296529
8998.00   1.51573467   0.01347875
9000.00   1.52655101   0.01401017
9002.00   1.51685727   0.01442155
9004.00   1.47608805   0.01443804
9006.00   1.39279759   0.01417303
9008.00   1.37629044   0.01370403
9010.00   1.40904117   0.01272958
9012.00   1.43641245   0.01196997
9014.00   1.47276819   0.01134116
9016.00   1.50218856   0.01088553
9018.00   1.50912476   0.01075001
9020.00   1.50105631   0.01090417
9022.00   1.48377252   0.01082279
9024.00   1.44489515   0.01063463
9026.00   1.41830361   0.01049743
9028.00   1.39749622   0.01030417
9030.00   1.37912428   0.01023950
9032.00   1.36072433   0.01039939
9034.00   1.34466863   0.01070635
9036.00   1.33929670   0.01104693
9038.00   1.34163010   0.01158171
9040.00   1.35141623   0.01185519
9042.00   1.37985027   0.01194806
9044.00   1.39578986   0.01205110
9046.00   1.39096010   0.01224491
9048.00   1.37688589   0.01240394
9050.00   1.36668801   0.01234012
9052.00   1.35366976   0.01213194
9054.00   1.34506977   0.01174974
9056.00   1.33902085   0.01094027
9058.00   1.33435142   0.01039828
9060.00   1.32971358   0.01015454
9062.00   1.32817519   0.01013309
9064.00   1.33393192   0.01035335
9066.00   1.34631860   0.01083924
9068.00   1.35354328   0.01112854
9070.00   1.35694265   0.01148732
9072.00   1.36456621   0.01157336
9074.00   1.37266672   0.01136723
9076.00   1.38689804   0.01107275
9078.00   1.41651750   0.01063900
9080.00   1.45585406   0.01009428
9082.00   1.46444178   0.01066333
9084.00   1.44561124   0.01205399
9086.00   1.43541253   0.01336538
9088.00   1.41790128   0.01546586
9090.00   1.41039932   0.01647583
9092.00   1.42465866   0.01577829
9094.00   1.44727874   0.01410265
9096.00   1.44637191   0.01307648
9098.00   1.42315066   0.01189062
9100.00   1.42059696   0.01141458
9102.00   1.43043280   0.01186780
9104.00   1.43899369   0.01209842
9106.00   1.44542360   0.01198034
9108.00   1.45137656   0.01177957
9110.00   1.45758271   0.01168183
9112.00   1.46654665   0.01159123
9114.00   1.46118760   0.01162845
9116.00   1.43840492   0.01200175
9118.00   1.42434299   0.01195204
9120.00   1.41307664   0.01128617
9122.00   1.41105342   0.01058921
9124.00   1.43041813   0.01040002
9126.00   1.46805298   0.01049482
9128.00   1.47691429   0.01090289
9130.00   1.46846473   0.01175283
9132.00   1.45692968   0.01244450
9134.00   1.42866516   0.01337269
9136.00   1.41059577   0.01386919
9138.00   1.41826320   0.01357004
9140.00   1.44097865   0.01274025
9142.00   1.45896041   0.01208250
9144.00   1.48849559   0.01080123
9146.00   1.49858189   0.01066029
9148.00   1.49506533   0.01144883
9150.00   1.48689294   0.01238097
9152.00   1.47553241   0.01368032
9154.00   1.45972419   0.01480785
9156.00   1.43912148   0.01447667
9158.00   1.40713513   0.01254548
9160.00   1.39453149   0.01172986
9162.00   1.39733446   0.01144736
9164.00   1.39919066   0.01122017
9166.00   1.40214920   0.01106787
9168.00   1.40368533   0.01101669
9170.00   1.39802074   0.01103321
9172.00   1.38676941   0.01114492
9174.00   1.37733352   0.01124789
9176.00   1.36463130   0.01155326
9178.00   1.35701370   0.01150307
9180.00   1.35250962   0.01095330
9182.00   1.35264754   0.01042251
9184.00   1.35829723   0.01024469
9186.00   1.36898518   0.01026961
9188.00   1.38831508   0.01081527
9190.00   1.42880166   0.01240116
9192.00   1.44514036   0.01268953
9194.00   1.44717395   0.01188327
9196.00   1.43856740   0.01111484
9198.00   1.41235614   0.01083421
9200.00   1.37824059   0.01077870
9202.00   1.37575555   0.01090996
9204.00   1.40376806   0.01136452
9206.00   1.41139328   0.01164966
9208.00   1.40603435   0.01205433
9210.00   1.41008425   0.01218355
9212.00   1.43177962   0.01184508
9214.00   1.45695388   0.01137241
9216.00   1.46494901   0.01129520
9218.00   1.45920146   0.01134219
9220.00   1.46708453   0.01186126
9222.00   1.48770630   0.01307087
9224.00   1.49761534   0.01377411
9226.00   1.49782979   0.01420859
9228.00   1.49116027   0.01426825
9230.00   1.47815502   0.01361762
9232.00   1.45840085   0.01220566
9234.00   1.43391049   0.01140029
9236.00   1.39678872   0.01067859
9238.00   1.37011969   0.01043913
9240.00   1.34792686   0.01086262
9242.00   1.33374679   0.01136979
9244.00   1.32835579   0.01175238
9246.00   1.33176398   0.01211802
9248.00   1.35366058   0.01217132
9250.00   1.40828359   0.01185189
9252.00   1.43626571   0.01173513
9254.00   1.45458925   0.01167555
9256.00   1.46215951   0.01163685
9258.00   1.45481133   0.01155897
9260.00   1.43877101   0.01153007
9262.00   1.42975795   0.01180179
9264.00   1.41946495   0.01254079
9266.00   1.41751039   0.01254882
9268.00   1.42797530   0.01194163
9270.00   1.43034124   0.01144792
9272.00   1.41956818   0.01095414
9274.00   1.40691316   0.01068067
9276.00   1.40483093   0.01117419
9278.00   1.40890253   0.01233543
9280.00   1.41281879   0.01275703
9282.00   1.42129838   0.01277537
9284.00   1.42603076   0.01289541
9286.00   1.42694914   0.01296002
9288.00   1.42693758   0.01316961
9290.00   1.43001449   0.01378150
9292.00   1.43478239   0.01464786
9294.00   1.42176712   0.01498021
9296.00   1.38494074   0.01466002
9298.00   1.36568594   0.01505023
9300.00   1.35819089   0.01545965
9302.00   1.35257065   0.01674348
9304.00   1.34839809   0.01923510
9306.00   1.34436774   0.02215627
9308.00   1.32451570   0.02445951
9310.00   1.27453828   0.02709354
9312.00   1.26617610   0.02841399
9314.00   1.29671001   0.02894412
9316.00   1.31386030   0.02908915
9318.00   1.30678236   0.02883564
9320.00   1.28998864   0.02823955
9322.00   1.27490318   0.02751236
9324.00   1.25131392   0.02642696
9326.00   1.24750197   0.02556747
9328.00   1.26181495   0.02474977
9330.00   1.27273655   0.02400026
9332.00   1.27778280   0.02316364
9334.00   1.28582942   0.02258725
9336.00   1.30779421   0.02276180
9338.00   1.34304667   0.02356815
9340.00   1.34871733   0.02398329
9342.00   1.31860304   0.02486707
9344.00   1.31709743   0.02458063
9346.00   1.35446298   0.02278296
9348.00   1.37722218   0.02078225
9350.00   1.35059428   0.01946994
9352.00   1.29425001   0.01846861
9354.00   1.24957192   0.01801264
9356.00   1.16862130   0.01847320
9358.00   1.16253781   0.01853866
9360.00   1.22777176   0.01807908
9362.00   1.29480672   0.01838068
9364.00   1.35404921   0.01949855
9366.00   1.40661621   0.02138918
9368.00   1.41102564   0.02473941
9370.00   1.36204910   0.02909051
9372.00   1.34353065   0.03295857
9374.00   1.33861458   0.03842861
9376.00   1.32253182   0.04080419
9378.00   1.28938341   0.03992348
9380.00   1.25076580   0.03710174
9382.00   1.21649563   0.03305979
9384.00   1.17402959   0.02540969
9386.00   1.17561615   0.02076047
9388.00   1.22440875   0.01949408
9390.00   1.25962269   0.01778392
9392.00   1.28891182   0.01577550
9394.00   1.31161082   0.01434321
9396.00   1.31993651   0.01430146
9398.00   1.31593609   0.01547894
9400.00   1.33115447   0.01607818
9402.00   1.37471688   0.01686916
9404.00   1.38268769   0.01731236
9406.00   1.36314166   0.01746472
9408.00   1.33079600   0.01754229
9410.00   1.27690041   0.01754800
9412.00   1.21300852   0.01751655
9414.00   1.22193551   0.01791389
9416.00   1.31403136   0.01867905
9418.00   1.35259306   0.01936191
9420.00   1.38319540   0.02034333
9422.00   1.39128804   0.02091083
9424.00   1.36143494   0.02085676
9426.00   1.31753826   0.02050268
9428.00   1.30871367   0.02022097
9430.00   1.31672609   0.01927262
9432.00   1.33668220   0.02036295
9434.00   1.39607978   0.02264402
9436.00   1.41801167   0.02538356
9438.00   1.40122032   0.02976020
9440.00   1.35705054   0.03286498
9442.00   1.27495539   0.03180167
9444.00   1.13702846   0.02707050
9446.00   1.13049817   0.02428563
9448.00   1.25119150   0.02097198
9450.00   1.32067895   0.01939364
9452.00   1.37562811   0.02017983
9454.00   1.39755344   0.02182703
9456.00   1.35588145   0.02375299
9458.00   1.26616156   0.02609653
9460.00   1.21941161   0.02686035
9462.00   1.16596985   0.02705693
9464.00   1.16550124   0.02607608
9466.00   1.22320199   0.02241678
9468.00   1.28589153   0.01966942
9470.00   1.34490025   0.02011756
9472.00   1.40119529   0.02232838
9474.00   1.41616488   0.02475816
9476.00   1.40505958   0.02923567
9478.00   1.36465752   0.02997183
9480.00   1.25130117   0.02815029
9482.00   1.19213104   0.02602265
9484.00   1.21622276   0.02340135
9486.00   1.27446544   0.02044863
9488.00   1.31568956   0.01867231
9490.00   1.36998916   0.01777687
9492.00   1.38636947   0.01767884
9494.00   1.36866629   0.01851376
9496.00   1.35412443   0.02000761
9498.00   1.32319534   0.02269779
9500.00   1.31095588   0.02494355
9502.00   1.36836886   0.02575123
9504.00   1.48360157   0.02583956
9506.00   1.49932098   0.02452908
9508.00   1.42792845   0.01999498
9510.00   1.39800453   0.01753895
9512.00   1.39332902   0.01706395
9514.00   1.39011312   0.01767705
9516.00   1.38059628   0.01936952
9518.00   1.36874902   0.02171632
9520.00   1.34553766   0.02215255
9522.00   1.28757083   0.02123655
9524.00   1.28430796   0.02058002
9526.00   1.33235061   0.01923566
9528.00   1.37224483   0.01845124
9530.00   1.38988054   0.01901944
9532.00   1.39808643   0.01999159
9534.00   1.40259182   0.01966471
9536.00   1.40791571   0.01815718
9538.00   1.38504779   0.01764947
9540.00   1.31664073   0.01739704
9542.00   1.27947533   0.01775070
9544.00   1.28214633   0.01898782
9546.00   1.30243444   0.02036089
9548.00   1.32890320   0.02113530
9550.00   1.37943757   0.02169969
9552.00   1.36125195   0.02192891
9554.00   1.26428366   0.02172307
9556.00   1.21271420   0.02156548
9558.00   1.19637215   0.02102535
9560.00   1.19730866   0.02094627
9562.00   1.21129715   0.02215951
9564.00   1.24110043   0.02414547
9566.00   1.26259136   0.02532388
9568.00   1.29116368   0.02704338
9570.00   1.30353498   0.02686125
9572.00   1.30251622   0.02452312
9574.00   1.29502308   0.02187455
9576.00   1.27629626   0.01947744
9578.00   1.25337851   0.01713627
9580.00   1.26427102   0.01691673
9582.00   1.31078732   0.01919956
9584.00   1.33633983   0.02033829
9586.00   1.36373007   0.02198159
9588.00   1.37625647   0.02257811
9590.00   1.36652517   0.02165347
9592.00   1.34628224   0.01996162
9594.00   1.33237851   0.01869326
9596.00   1.31282711   0.01693951
9598.00   1.31417429   0.01686011
9600.00   1.34370697   0.01855966
9602.00   1.35465157   0.01973673
9604.00   1.34869695   0.02084057
9606.00   1.33025432   0.02145303
9608.00   1.29380250   0.02076942
9610.00   1.23572874   0.01882398
9612.00   1.21915138   0.01812871
9614.00   1.23720169   0.01806060
9616.00   1.24553013   0.01821550
9618.00   1.25546741   0.01887986
9620.00   1.25911999   0.01949544
9622.00   1.24620414   0.01983860
9624.00   1.22311616   0.02003605
9626.00   1.22174776   0.01963995
9628.00   1.23448968   0.01833324
9630.00   1.24930680   0.01755012
9632.00   1.27485168   0.01687057
9634.00   1.29650533   0.01647113
9636.00   1.30952346   0.01647290
9638.00   1.31813347   0.01676495
9640.00   1.32677341   0.01712536
9642.00   1.34118307   0.01780314
9644.00   1.33135045   0.01807927
9646.00   1.29380929   0.01834198
9648.00   1.26493967   0.01813851
9650.00   1.24422467   0.01704959
9652.00   1.23210883   0.01577209
9654.00   1.23910940   0.01555950
9656.00   1.26828492   0.01603172
9658.00   1.27258158   0.01664543
9660.00   1.25529325   0.01787761
9662.00   1.25249553   0.01864190
9664.00   1.27153897   0.01888397
9666.00   1.28535378   0.01915771
9668.00   1.26838160   0.01988293
9670.00   1.23037362   0.02084764
9672.00   1.22292805   0.02152634
9674.00   1.23827517   0.02246841
9676.00   1.24502206   0.02252535
9678.00   1.25941384   0.02131840
9680.00   1.25752783   0.02042908
9682.00   1.21313047   0.02089874
9684.00   1.14931691   0.02197442
9686.00   1.15596163   0.02217843
9688.00   1.24532890   0.02205885
9690.00   1.26422358   0.02163408
9692.00   1.24587083   0.02028544
9694.00   1.22362196   0.01961356
9696.00   1.19147480   0.02040325
9698.00   1.16349995   0.02159106
9700.00   1.18813097   0.02164767
9702.00   1.27246797   0.02098874
9704.00   1.29390144   0.02059154
9706.00   1.27968049   0.01974316
9708.00   1.26172996   0.01964620
9710.00   1.23450065   0.02037605
9712.00   1.20574915   0.02158882
9714.00   1.18528497   0.02325518
9716.00   1.16392636   0.02554977
9718.00   1.18309212   0.02606615
9720.00   1.26290226   0.02527730
9722.00   1.29771388   0.02449563
9724.00   1.29450643   0.02317092
9726.00   1.27842438   0.02200721
9728.00   1.25947368   0.02173383
9730.00   1.23244417   0.02203011
9732.00   1.21384907   0.02196103
9734.00   1.19374156   0.02175622
9736.00   1.18601823   0.02172787
9738.00   1.19024062   0.02207533
9740.00   1.19827223   0.02206231
9742.00   1.20973372   0.02123688
9744.00   1.22354913   0.01999503
9746.00   1.22973633   0.01947438
9748.00   1.23233795   0.01957681
9750.00   1.23016679   0.01921839
9752.00   1.21645129   0.01835421
9754.00   1.21154249   0.01800610
9756.00   1.22716260   0.01868496
9758.00   1.24205792   0.01948448
9760.00   1.22066808   0.01916719
9762.00   1.16286385   0.01792031
9764.00   1.15194714   0.01742102
9766.00   1.17605186   0.01681539
9768.00   1.19111955   0.01717555
9770.00   1.18992805   0.01902660
9772.00   1.19881022   0.02065957
9774.00   1.24930036   0.02085860
9776.00   1.33454645   0.02021588
9778.00   1.34517968   0.01991429
9780.00   1.28601408   0.01909966
9782.00   1.25897205   0.01922768
9784.00   1.25110769   0.02010584
9786.00   1.24305975   0.02138805
9788.00   1.22570801   0.02319334
9790.00   1.20486569   0.02522640
9792.00   1.19104052   0.02593051
9794.00   1.17274749   0.02573423
9796.00   1.17601192   0.02545353
9798.00   1.21103680   0.02467054
9800.00   1.22971511   0.02384258
9802.00   1.21318102   0.02302362
9804.00   1.18397927   0.02220149
9806.00   1.17846870   0.02159720
9808.00   1.19111896   0.02107207
9810.00   1.18471789   0.02094342
9812.00   1.15649486   0.02126019
9814.00   1.14807022   0.02161696
9816.00   1.16982543   0.02225635
9818.00   1.19774187   0.02270245
9820.00   1.20831954   0.02220244
9822.00   1.21522355   0.02082448
9824.00   1.19250262   0.02011410
9826.00   1.11971009   0.01969184
9828.00   1.08645284   0.01927575
9830.00   1.08985877   0.01881695
9832.00   1.10580242   0.01853995
9834.00   1.12598801   0.01867975
9836.00   1.15551233   0.01913189
9838.00   1.15454507   0.01925197
9840.00   1.11724722   0.01848082
9842.00   1.10744035   0.01937844
9844.00   1.12383020   0.02176578
9846.00   1.13030088   0.02394381
9848.00   1.10470688   0.02590517
9850.00   1.06702256   0.02753780
9852.00   1.06791842   0.02710553
9854.00   1.09525001   0.02376573
9856.00   1.12546647   0.02258893
9858.00   1.17927420   0.02274041
9860.00   1.21812677   0.02274613
9862.00   1.23177540   0.02188542
9864.00   1.23564839   0.02130845
9866.00   1.24758911   0.02291081
9868.00   1.25823116   0.02582284
9870.00   1.27882886   0.02892318
9872.00   1.32993162   0.03438104
9874.00   1.33920789   0.03604979
9876.00   1.28554559   0.03349256
9878.00   1.22779691   0.02945480
9880.00   1.22396123   0.02672470
9882.00   1.25233686   0.02389912
9884.00   1.26311409   0.02334096
9886.00   1.28914881   0.02571630
9888.00   1.27849221   0.02693991
9890.00   1.21395123   0.02793955
9892.00   1.16157389   0.02846657
9894.00   1.16688418   0.02821125
9896.00   1.20288658   0.02736257
9898.00   1.19880795   0.02655771
9900.00   1.15228605   0.02520013
9902.00   1.15445173   0.02443827
9904.00   1.21315455   0.02348616
9906.00   1.24100983   0.02374007
9908.00   1.19928312   0.02592289
9910.00   1.12973821   0.02883225
9912.00   1.10575986   0.03077064
9914.00   1.10237658   0.03275945
9916.00   1.10749269   0.03368459
9918.00   1.14434159   0.03404293
9920.00   1.15629852   0.03365323
9922.00   1.12306309   0.03219141
9924.00   1.08562493   0.03013398
9926.00   1.09797883   0.02820868
9928.00   1.14756203   0.02577881
9930.00   1.16923368   0.02466426
9932.00   1.18128228   0.02422230
9934.00   1.19162357   0.02512755
9936.00   1.19721246   0.02721525
9938.00   1.20272815   0.03015203
9940.00   1.21722364   0.03399397
9942.00   1.23834264   0.03846902
9944.00   1.22233212   0.04110001
9946.00   1.18447459   0.04310598
9948.00   1.12334168   0.04423885
9950.00   0.98307931   0.04444110
9952.00   0.90757751   0.04423811
9954.00   0.99437535   0.04378355
9956.00   1.16584241   0.04299523
9958.00   1.20871890   0.04215496
9960.00   1.18059218   0.04075717
9962.00   1.14970863   0.04014000
9964.00   1.05436099   0.04070015
9966.00   1.01000166   0.04031093
9968.00   1.06150830   0.03795055
9970.00   1.14591551   0.03481767
9972.00   1.16504526   0.03355795
9974.00   1.14412832   0.03389381
9976.00   1.14739978   0.03302013
9978.00   1.16117883   0.03161856
9980.00   1.16685486   0.03011095
9982.00   1.15840924   0.02814471
9984.00   1.15092158   0.02631168
9986.00   1.15870988   0.02561417
9988.00   1.17421556   0.02582695
9990.00   1.20813477   0.02606901
9992.00   1.27786946   0.02676420
9994.00   1.31771207   0.02744501
9996.00   1.33403170   0.02799227
9998.00   1.33807778   0.02886724
10000.00   1.33071280   0.03025726
10002.00   1.31160879   0.03199003
10004.00   1.30969703   0.03427105
10006.00   1.31452179   0.03706872
10008.00   1.32735240   0.03980949
10010.00   1.35983872   0.04334091
10012.00   1.38019300   0.04571234
10014.00   1.37701094   0.04651245
10016.00   1.35956252   0.04628031
10018.00   1.33588588   0.04519244
10020.00   1.29572535   0.04218290
10022.00   1.26694691   0.04070362
10024.00   1.23482597   0.04028299
10026.00   1.21744573   0.03953919
10028.00   1.21962762   0.03830025
10030.00   1.23274100   0.03678049
10032.00   1.24975801   0.03485474
10034.00   1.28412592   0.03186202
10036.00   1.27519584   0.03140141
10038.00   1.22329235   0.03374565
10040.00   1.18593168   0.03485457
10042.00   1.15652382   0.03522215
10044.00   1.13601184   0.03491654
10046.00   1.12703872   0.03333076
10048.00   1.12665617   0.03030743
10050.00   1.15966439   0.02957020
10052.00   1.26107657   0.03056735
10054.00   1.29180026   0.03146327
10056.00   1.25875330   0.03280061
10058.00   1.21639204   0.03407041
10060.00   1.17992520   0.03506374
10062.00   1.14348662   0.03591760
10064.00   1.15756524   0.03649232
10066.00   1.24057364   0.03688542
10068.00   1.26951110   0.03699760
10070.00   1.26025712   0.03636471
10072.00   1.26565373   0.03634575
10074.00   1.30869555   0.03732315
10076.00   1.36035264   0.03883122
10078.00   1.36858749   0.04045321
10080.00   1.33103108   0.04251580
10082.00   1.34704649   0.04409348
10084.00   1.41375494   0.04563203
10086.00   1.44986320   0.04675365
10088.00   1.46229100   0.04795531
10090.00   1.44335806   0.04832802
10092.00   1.35568619   0.04622976
10094.00   1.18597412   0.04124701
10096.00   1.15413690   0.03944730
10098.00   1.24322951   0.03975483
10100.00   1.28420305   0.04023072
10102.00   1.30327523   0.04170911
10104.00   1.29821825   0.04283897
10106.00   1.24854028   0.04249572
10108.00   1.16276300   0.04122294
10110.00   1.13352072   0.04055102
10112.00   1.11647570   0.03935250
10114.00   1.15251780   0.03961870
10116.00   1.26248038   0.04065462
10118.00   1.36631429   0.04291977
10120.00   1.44985294   0.04745977
10122.00   1.51434159   0.05244612
10124.00   1.48645830   0.05316178
10126.00   1.33137226   0.05037299
10128.00   1.27466476   0.04856562
10130.00   1.26941252   0.04584748
10132.00   1.25776649   0.04356018
10134.00   1.23421395   0.04202397
10136.00   1.20475817   0.04097282
10138.00   1.16030300   0.04018260
10140.00   1.08783400   0.03956890
10142.00   1.07448101   0.04022235
10144.00   1.13997543   0.04119578
10146.00   1.14261281   0.04410091
10148.00   1.05653930   0.04993960
10150.00   0.96479619   0.05503083
10152.00   0.93562162   0.05686323
10154.00   0.93533218   0.05695672
10156.00   0.99198139   0.05618261
10158.00   1.17323387   0.05275318
10160.00   1.23439205   0.05117524
10162.00   1.19904816   0.04917163
10164.00   1.12275112   0.05057824
10166.00   1.00805438   0.05837637
10168.00   0.85828888   0.06877805
10170.00   0.81724250   0.07426426
10172.00   0.85226405   0.08142170
10174.00   0.90272194   0.07980284
10176.00   1.03252900   0.06606854
10178.00   1.11350775   0.05350972
10180.00   1.08181202   0.05080746
10182.00   1.01029313   0.05326813
10184.00   1.04118788   0.05408673
10186.00   1.16392744   0.05620161
10188.00   1.19835925   0.05792778
10190.00   1.20098674   0.06061763
10192.00   1.16716027   0.06178245
10194.00   1.06723726   0.06103821
10196.00   0.95966774   0.05935292
10198.00   0.92622709   0.05738524
10200.00   0.92667753   0.05388952
10202.00   0.99842989   0.05466629
10204.00   1.21745026   0.05996734
10206.00   1.31283092   0.06283349
10208.00   1.27351654   0.06326325
10210.00   1.20640171   0.06395102
10212.00   1.17345905   0.06696488
10214.00   1.14176667   0.07123310
10216.00   1.17436016   0.07317023
10218.00   1.33120692   0.07505620
10220.00   1.34816074   0.07392091
10222.00   1.21384239   0.06766240
10224.00   1.10959578   0.06263024
10226.00   1.13477123   0.06362960
10228.00   1.21384382   0.06731990
10230.00   1.18600047   0.06645388
10232.00   1.07267463   0.06205886
10234.00   1.00244033   0.05935729
10236.00   0.88631135   0.05662087
10238.00   0.86613286   0.05443741
10240.00   1.02806008   0.05305976
10242.00   1.24008512   0.05229897
10244.00   1.26080191   0.05191365
10246.00   1.14118183   0.05234737
10248.00   1.09554231   0.05202098
10250.00   1.02228391   0.05106916
10252.00   1.02541625   0.05052667
10254.00   1.16035748   0.05016195
10256.00   1.29557109   0.05035175
10258.00   1.28054786   0.05165362
10260.00   1.16353691   0.05378952
10262.00   1.11253035   0.05631105
10264.00   1.04747593   0.06074468
10266.00   1.04688299   0.06242393
10268.00   1.12519348   0.06020890
10270.00   1.21503925   0.05921149
10272.00   1.28404558   0.06295536
10274.00   1.34893787   0.06906505
10276.00   1.36354530   0.07428018
10278.00   1.31668544   0.07998269
10280.00   1.29870248   0.08513293
10282.00   1.27781582   0.09090303
10284.00   1.27674508   0.09506280
10286.00   1.31461179   0.09726083
10288.00   1.36967242   0.09798667
10290.00   1.38757908   0.09693759
10292.00   1.42130780   0.09367486
10294.00   1.34447837   0.09003931
10296.00   1.09818792   0.08399138
10298.00   0.96062160   0.07916109
10300.00   0.99796033   0.07639775
10302.00   1.08965766   0.07482252
10304.00   1.09966958   0.07394750
10306.00   1.08113873   0.07496508
10308.00   1.05194890   0.07239057
10310.00   0.99385810   0.06508336
10312.00   0.94514793   0.06066154
10314.00   0.89769900   0.06006914
10316.00   0.86026210   0.06061149
10318.00   0.83964390   0.06043889
10320.00   0.83025444   0.06046443
10322.00   0.86843812   0.06006984
10324.00   0.95985609   0.05881120
10326.00   1.04705596   0.05876195
10328.00   1.17622721   0.06033531
10330.00   1.26096714   0.06137915
10332.00   1.24806428   0.06017710
10334.00   1.17309332   0.05799832
10336.00   1.10809422   0.05996758
10338.00   0.97734445   0.06523158
10340.00   0.94921404   0.06946747
10342.00   1.01945162   0.07617336
10344.00   1.06652188   0.07895397
10346.00   1.06183290   0.07523204
10348.00   1.03423452   0.06846346
10350.00   0.99880689   0.06638228
10352.00   0.93012798   0.06730886
10354.00   0.91525596   0.06670097
10356.00   0.94695193   0.06582001
10358.00   0.96761948   0.06505869
10360.00   0.96534693   0.06353079
10362.00   0.96954465   0.06302224
10364.00   1.01848149   0.06616703
10366.00   1.11221290   0.07198443
10368.00   1.12353420   0.07629526
10370.00   1.06227636   0.08182443
10372.00   1.02649462   0.08442664
10374.00   0.98732108   0.08400647
10376.00   0.97771794   0.08290565
10378.00   1.04345655   0.08284984
10380.00   1.16370535   0.08300224
10382.00   1.18759751   0.08107058
10384.00   1.15979707   0.07676435
10386.00   1.10430241   0.07309948
10388.00   0.95174795   0.06752083
10390.00   0.86858767   0.06468543
10392.00   0.94419730   0.06831195
10394.00   1.10003853   0.07466879
10396.00   1.17502439   0.07603440
10398.00   1.24253953   0.07499204
10400.00   1.25189662   0.07341558
10402.00   1.15145910   0.06875540
10404.00   1.13025498   0.06625389
10406.00   1.25215769   0.06716469
10408.00   1.41304553   0.06995972
10410.00   1.47137129   0.07346694
10412.00   1.48042023   0.07836651
10414.00   1.46151233   0.08239597
10416.00   1.38937318   0.08831299
10418.00   1.31998074   0.09005067
10420.00   1.25182414   0.08704482
10422.00   1.17721438   0.08198787
10424.00   1.07809114   0.07669937
10426.00   0.94805908   0.06946635
10428.00   0.95583940   0.06673662
10430.00   1.13833189   0.06835138
10432.00   1.19957745   0.06948675
10434.00   1.15357089   0.07179544
10436.00   1.10567820   0.07338894
10438.00   1.10488999   0.07299390
10440.00   1.12395358   0.07140353
10442.00   1.16220748   0.07035757
10444.00   1.28122342   0.06870705
10446.00   1.27578664   0.06822077
10448.00   1.13679373   0.06908718
10450.00   1.04119563   0.06953490
10452.00   1.05344880   0.06895340
10454.00   1.10621488   0.06796826
10456.00   1.10459399   0.06729361
10458.00   1.08325756   0.06509855
10460.00   1.04902709   0.06784669
10462.00   0.94172478   0.07546909
10464.00   0.93023676   0.08092926
10466.00   1.07105076   0.08538155
10468.00   1.24602377   0.08778519
10470.00   1.31272388   0.08477469
10472.00   1.32301068   0.07520432
10474.00   1.33335793   0.07311350
10476.00   1.30387402   0.07714760
10478.00   1.30164039   0.07874898
10480.00   1.34514010   0.07933190
10482.00   1.37089801   0.07848912
10484.00   1.32250440   0.07429273
10486.00   1.22384703   0.06673162
10488.00   1.17042601   0.06616062
10490.00   1.10809004   0.07261390
10492.00   1.10716808   0.07506695
10494.00   1.18247151   0.07615407
10496.00   1.25479221   0.07603014
10498.00   1.29907262   0.07384348
10500.00   1.32801831   0.07037434
10502.00   1.30900371   0.07007199
10504.00   1.19285488   0.07205000
10506.00   1.19299364   0.07390449
10508.00   1.28204250   0.07708633
10510.00   1.35970521   0.07933624
10512.00   1.41514170   0.08016106
10514.00   1.45683599   0.08038006
10516.00   1.46535790   0.08084871
10518.00   1.43244922   0.08095158
10520.00   1.43575287   0.08203311
10522.00   1.48123825   0.08477738
10524.00   1.47902393   0.08579192
10526.00   1.39774764   0.08450312
10528.00   1.31713450   0.08270517
10530.00   1.32632744   0.08217119
10532.00   1.39930344   0.08221523
10534.00   1.40844679   0.08206183
10536.00   1.37762547   0.08182896
10538.00   1.36380970   0.08194984
10540.00   1.36101460   0.08224940
10542.00   1.35977006   0.08296393
10544.00   1.35277653   0.08442429
10546.00   1.34421027   0.08640017
10548.00   1.35875034   0.08756452
10550.00   1.38908613   0.08798852
10552.00   1.43085945   0.08904968
10554.00   1.50249791   0.09060498
10556.00   1.55785823   0.09203985
10558.00   1.58722246   0.09324422
10560.00   1.59524858   0.09427912
10562.00   1.56346631   0.09491447
10564.00   1.47285926   0.09492043
10566.00   1.42513311   0.09557735
10568.00   1.39382577   0.09664263
10570.00   1.36660850   0.09767582
10572.00   1.34372389   0.09866592
10574.00   1.32459414   0.09963292
10576.00   1.30761409   0.10048264
10578.00   1.29955041   0.10115211
10580.00   1.26417148   0.10226363
10582.00   1.17832410   0.10393414
10584.00   1.14785719   0.10516398
10586.00   1.16916430   0.10576676
10588.00   1.22324073   0.10645621
10590.00   1.31204486   0.10784459
10592.00   1.44136202   0.10966515
10594.00   1.50276172   0.11118099
10596.00   1.54551804   0.11327121
10598.00   1.52847469   0.11391728
10600.00   1.41309249   0.11275934
10602.00   1.31881642   0.11183071
10604.00   1.31830645   0.11230008
10606.00   1.36131310   0.11338023
10608.00   1.33555830   0.11359493
10610.00   1.23243403   0.11293489
10612.00   1.21749413   0.11323790
10614.00   1.26846099   0.11433501
10616.00   1.31443667   0.11520586
10618.00   1.33376634   0.11551660
10620.00   1.35201967   0.11568791
10622.00   1.40742040   0.11639719
10624.00   1.53201818   0.11807801
10626.00   1.51436532   0.11755668
10628.00   1.34546494   0.11467454
10630.00   1.24407637   0.11269480
10632.00   1.22732270   0.11196619
10634.00   1.23923743   0.11157160
10636.00   1.24142075   0.11080598
10638.00   1.25276995   0.10997383
10640.00   1.25616360   0.10907213
10642.00   1.26081586   0.10812405
10644.00   1.25534272   0.10705134
10646.00   1.23275852   0.10562455
10648.00   1.21386218   0.10440286
10650.00   1.21190381   0.10404664
10652.00   1.22007799   0.10425898
10654.00   1.24134851   0.10293841
10656.00   1.28256917   0.09983261
10658.00   1.31786132   0.09798615
10660.00   1.37726235   0.09732361
10662.00   1.39852250   0.09620219
10664.00   1.33921432   0.09375855
10666.00   1.24090695   0.09066644
10668.00   1.21055448   0.08843090
10670.00   1.20827043   0.08641357
10672.00   1.23490405   0.08506465
10674.00   1.32129967   0.08476447
10676.00   1.37928271   0.08417029
10678.00   1.39942193   0.08313212
10680.00   1.39413905   0.08182368
10682.00   1.35655606   0.08015333
10684.00   1.26638639   0.07793495
10686.00   1.24763978   0.07620391
10688.00   1.27873123   0.07458610
10690.00   1.30690396   0.07328193
10692.00   1.35182774   0.07264624
10694.00   1.38104832   0.07191203
10696.00   1.34543359   0.07008895
10698.00   1.25599670   0.06735718
10700.00   1.25155771   0.06618185
10702.00   1.33973742   0.06665510
10704.00   1.34891701   0.06607439
10706.00   1.28932011   0.06474958
10708.00   1.21813512   0.06314681
10710.00   1.15168238   0.06110718
10712.00   1.08337295   0.05876111
10714.00   1.07561898   0.05847792
10716.00   1.13824832   0.06158243
10718.00   1.16415739   0.06094422
10720.00   1.17069101   0.05687235
10722.00   1.19107234   0.05349399
10724.00   1.25017428   0.05259668
10726.00   1.31538630   0.05265050
10728.00   1.30968904   0.05143775
10730.00   1.22634566   0.04891286
10732.00   1.21789813   0.04865541
10734.00   1.25780654   0.05057114
10736.00   1.28758383   0.05181098
10738.00   1.31615305   0.05276784
10740.00   1.32841039   0.05289672
10742.00   1.28710246   0.05057750
10744.00   1.19405675   0.04530716
10746.00   1.14453125   0.04295589
10748.00   1.10095549   0.04276367
10750.00   1.08469713   0.04210946
10752.00   1.10509050   0.04101893
10754.00   1.13368630   0.04025627
10756.00   1.15138888   0.04022736
10758.00   1.16805708   0.04072598
10760.00   1.17112267   0.04229768
10762.00   1.14951754   0.04666007
10764.00   1.15322173   0.04717071
10766.00   1.17206526   0.04414571
10768.00   1.20273471   0.04075353
10770.00   1.25381947   0.03817797
10772.00   1.31501341   0.03589061
10774.00   1.33490288   0.03546552
10776.00   1.30543172   0.03781588
10778.00   1.32112002   0.03802542
10780.00   1.39670229   0.03675609
10782.00   1.41239953   0.03627864
10784.00   1.31404531   0.03743057
10786.00   1.18430662   0.03896523
10788.00   1.15683210   0.03933869
10790.00   1.19269598   0.03942655
10792.00   1.22140145   0.03810210
10794.00   1.27819586   0.03380708
10796.00   1.32348466   0.03158437
10798.00   1.36668062   0.03271791
10800.00   1.39373612   0.03446860
10802.00   1.37717426   0.03454888
10804.00   1.31946266   0.03388977
10806.00   1.31472051   0.03372216
10808.00   1.34859240   0.03386285
10810.00   1.36857736   0.03361744
10812.00   1.39950931   0.03303817
10814.00   1.40346146   0.03226786
10816.00   1.33752584   0.03129927
10818.00   1.22680271   0.03011742
10820.00   1.20632815   0.02921950
10822.00   1.27749097   0.02782566
10824.00   1.27867138   0.02800834
10826.00   1.22409892   0.03032367
10828.00   1.18890142   0.03168997
10830.00   1.19340777   0.03072209
10832.00   1.22267079   0.02898036
10834.00   1.28033042   0.03023362
10836.00   1.40847349   0.03497171
10838.00   1.43533790   0.03481990
10840.00   1.38465762   0.03047794
10842.00   1.33780026   0.02685645
10844.00   1.30174005   0.02511651
10846.00   1.26329648   0.02406724
10848.00   1.21498883   0.02269182
10850.00   1.14885998   0.02135677
10852.00   1.13175833   0.02054832
10854.00   1.16605747   0.02053323
10856.00   1.17938924   0.02024519
10858.00   1.16922522   0.01948681
10860.00   1.16044593   0.01895833
10862.00   1.17361987   0.01946278
10864.00   1.20124769   0.02070060
10866.00   1.20385611   0.02061625
10868.00   1.17476177   0.01938300
10870.00   1.17842650   0.01864450
10872.00   1.21746039   0.01806281
