# File created by shivutils (I.Shivvers)
# wl(A)   flm    er(optional)
3440.00   0.22634263   0.02290126
3442.00   0.23776822   0.02315447
3444.00   0.29159164   0.02426773
3446.00   0.31247678   0.02488185
3448.00   0.29045355   0.02514189
3450.00   0.28034323   0.02530383
3452.00   0.28845036   0.02595476
3454.00   0.29798615   0.02605597
3456.00   0.31797600   0.02657891
3458.00   0.37502784   0.02790075
3460.00   0.26644892   0.02585351
3462.00   0.37201354   0.02757148
3464.00   0.34510159   0.02701164
3466.00   0.31444064   0.02671828
3468.00   0.41018900   0.02833454
3470.00   0.36936551   0.02743862
3472.00   0.39102581   0.02824272
3474.00   0.35004672   0.02694089
3476.00   0.34584814   0.02766597
3478.00   0.38633361   0.02999979
3480.00   0.39373741   0.03071270
3482.00   0.38360140   0.03074470
3484.00   0.36092407   0.03008683
3486.00   0.38575810   0.03022559
3488.00   0.42193893   0.03084132
3490.00   0.40962556   0.03017393
3492.00   0.37937364   0.02947304
3494.00   0.38595152   0.02922093
3496.00   0.38976973   0.02937600
3498.00   0.38155514   0.02901560
3500.00   0.32937336   0.02811225
3502.00   0.36805332   0.02859626
3504.00   0.33883065   0.02822437
3506.00   0.37731117   0.02878267
3508.00   0.39726490   0.02915309
3510.00   0.37535733   0.02917839
3512.00   0.35025999   0.02864077
3514.00   0.36886862   0.02802312
3516.00   0.36973226   0.02867614
3518.00   0.37111622   0.02801364
3520.00   0.32913476   0.02697694
3522.00   0.33877069   0.02756052
3524.00   0.35428280   0.02706230
3526.00   0.32493022   0.02684190
3528.00   0.29136422   0.02602292
3530.00   0.31868416   0.02655827
3532.00   0.31693593   0.02640302
3534.00   0.30945069   0.02627989
3536.00   0.30267024   0.02610390
3538.00   0.31932279   0.02674948
3540.00   0.30856949   0.02711550
3542.00   0.31720355   0.02773585
3544.00   0.28513610   0.02754326
3546.00   0.28438216   0.02746029
3548.00   0.31415731   0.02751084
3550.00   0.36107677   0.02783727
3552.00   0.28112423   0.02614537
3554.00   0.29277590   0.02671885
3556.00   0.36362997   0.02800457
3558.00   0.33096418   0.02670720
3560.00   0.29702470   0.02561414
3562.00   0.33435410   0.02596020
3564.00   0.30027831   0.02507675
3566.00   0.33749467   0.02565472
3568.00   0.36642262   0.02594785
3570.00   0.36595726   0.02570053
3572.00   0.34209374   0.02524968
3574.00   0.34107971   0.02537366
3576.00   0.32822096   0.02461091
3578.00   0.34715205   0.02490768
3580.00   0.38040611   0.02515986
3582.00   0.39551371   0.02508847
3584.00   0.34273258   0.02371283
3586.00   0.36372846   0.02386141
3588.00   0.37049222   0.02408817
3590.00   0.34586176   0.02422847
3592.00   0.34211656   0.02363368
3594.00   0.35003573   0.02360467
3596.00   0.32188365   0.02268423
3598.00   0.31537741   0.02243095
3600.00   0.30363652   0.02231383
3602.00   0.29696229   0.02193939
3604.00   0.33006975   0.02207040
3606.00   0.30713895   0.02171534
3608.00   0.36477247   0.02243544
3610.00   0.36680299   0.02272139
3612.00   0.32224652   0.02212154
3614.00   0.33584583   0.02290655
3616.00   0.35945973   0.02298891
3618.00   0.37053552   0.02323894
3620.00   0.37339208   0.02277982
3622.00   0.38176447   0.02292807
3624.00   0.39925072   0.02277051
3626.00   0.36957917   0.02243513
3628.00   0.38403398   0.02273514
3630.00   0.34360328   0.02260354
3632.00   0.40322676   0.02350830
3634.00   0.42861411   0.02358176
3636.00   0.39972436   0.02289055
3638.00   0.38270143   0.02240353
3640.00   0.38067248   0.02248853
3642.00   0.39070231   0.02299008
3644.00   0.39414248   0.02289198
3646.00   0.37558243   0.02282881
3648.00   0.41905507   0.02632197
3650.00   0.39096257   0.02818828
3652.00   0.35703772   0.02632443
3654.00   0.40411270   0.02535813
3656.00   0.37655166   0.02379095
3658.00   0.37248296   0.02187667
3660.00   0.36477011   0.02176910
3662.00   0.38624564   0.02334528
3664.00   0.36826974   0.02270492
3666.00   0.34439421   0.02053989
3668.00   0.38799259   0.02032715
3670.00   0.33278301   0.01949820
3672.00   0.37202445   0.01976959
3674.00   0.38351339   0.01979592
3676.00   0.33675316   0.01913095
3678.00   0.31364977   0.01848604
3680.00   0.30453786   0.01821629
3682.00   0.31168029   0.01834611
3684.00   0.28850368   0.01761511
3686.00   0.30772376   0.01792803
3688.00   0.32384789   0.01825360
3690.00   0.30213702   0.01788232
3692.00   0.33416981   0.01840336
3694.00   0.33537671   0.01823266
3696.00   0.34554857   0.01850237
3698.00   0.33525077   0.01864385
3700.00   0.34416515   0.01892591
3702.00   0.38690102   0.01919283
3704.00   0.38467771   0.01916083
3706.00   0.37029332   0.01858655
3708.00   0.38204750   0.01864900
3710.00   0.40669540   0.01899701
3712.00   0.42725417   0.01926592
3714.00   0.41912481   0.01907511
3716.00   0.46079120   0.01957189
3718.00   0.49091163   0.01979196
3720.00   0.47273263   0.01943614
3722.00   0.49657306   0.01960774
3724.00   0.47604424   0.01931840
3726.00   0.47953388   0.01944685
3728.00   0.51819444   0.01984643
3730.00   0.55164778   0.02052615
3732.00   0.56028014   0.02064694
3734.00   0.59095496   0.02092537
3736.00   0.61738294   0.02114581
3738.00   0.63259435   0.02143011
3740.00   0.72064263   0.02262127
3742.00   0.75438577   0.02308897
3744.00   0.75101918   0.02300834
3746.00   0.78635770   0.02296506
3748.00   0.74820739   0.02194185
3750.00   0.75247008   0.02190340
3752.00   0.79840821   0.02243829
3754.00   0.82194728   0.02269690
3756.00   0.81446648   0.02241639
3758.00   0.88528788   0.02320937
3760.00   0.86556268   0.02278769
3762.00   0.82008910   0.02218577
3764.00   0.81284809   0.02204029
3766.00   0.80615193   0.02193097
3768.00   0.81294024   0.02184951
3770.00   0.82900268   0.02197323
3772.00   0.83723658   0.02208956
3774.00   0.79172331   0.02166365
3776.00   0.73951399   0.02090870
3778.00   0.83707464   0.02191539
3780.00   0.80358481   0.02148219
3782.00   0.82702392   0.02163934
3784.00   0.83525157   0.02168604
3786.00   0.82661641   0.02149834
3788.00   0.82555211   0.02128378
3790.00   0.80982095   0.02125668
3792.00   0.81700778   0.02139700
3794.00   0.80367035   0.02108113
3796.00   0.78198141   0.02068758
3798.00   0.78459758   0.02067921
3800.00   0.77064216   0.02054241
3802.00   0.76094818   0.02044074
3804.00   0.73871261   0.02012627
3806.00   0.76740861   0.02023659
3808.00   0.75952721   0.02004506
3810.00   0.74429113   0.01992208
3812.00   0.70280862   0.01958546
3814.00   0.76263261   0.02013742
3816.00   0.70999658   0.01950368
3818.00   0.76847637   0.01994844
3820.00   0.75597692   0.01983607
3822.00   0.77298242   0.01987577
3824.00   0.74719042   0.01950971
3826.00   0.78155702   0.01988721
3828.00   0.78374535   0.02010935
3830.00   0.74682772   0.01988355
3832.00   0.67629737   0.01897020
3834.00   0.67820811   0.01898848
3836.00   0.61411715   0.01813819
3838.00   0.60100609   0.01780579
3840.00   0.58033544   0.01756510
3842.00   0.53981370   0.01708521
3844.00   0.57070863   0.01741129
3846.00   0.53093022   0.01682812
3848.00   0.49299273   0.01625152
3850.00   0.43785101   0.01552742
3852.00   0.41038272   0.01512739
3854.00   0.42541847   0.01515483
3856.00   0.41210946   0.01495714
3858.00   0.38809943   0.01455513
3860.00   0.37815800   0.01443396
3862.00   0.36335036   0.01423747
3864.00   0.38663179   0.01450633
3866.00   0.36413580   0.01421082
3868.00   0.34109282   0.01371840
3870.00   0.35189745   0.01375009
3872.00   0.33753452   0.01370446
3874.00   0.35370490   0.01407586
3876.00   0.31317270   0.01344762
3878.00   0.34387833   0.01366142
3880.00   0.34268147   0.01358746
3882.00   0.36351827   0.01370063
3884.00   0.38326988   0.01390077
3886.00   0.36466601   0.01364991
3888.00   0.37927565   0.01390027
3890.00   0.39719433   0.01404345
3892.00   0.40845281   0.01420929
3894.00   0.38292232   0.01402031
3896.00   0.40623993   0.01430413
3898.00   0.42443421   0.01444621
3900.00   0.43478367   0.01459322
3902.00   0.48857433   0.01526868
3904.00   0.46339905   0.01520917
3906.00   0.50134504   0.01620924
3908.00   0.50816840   0.01660109
3910.00   0.53815836   0.01694825
3912.00   0.54550999   0.01686767
3914.00   0.55056757   0.01664256
3916.00   0.59457666   0.01657364
3918.00   0.62915677   0.01668800
3920.00   0.61696684   0.01643409
3922.00   0.66448367   0.01687027
3924.00   0.66371775   0.01674003
3926.00   0.72459793   0.01721341
3928.00   0.72987622   0.01716059
3930.00   0.74717605   0.01741883
3932.00   0.76861995   0.01773960
3934.00   0.80702382   0.01796424
3936.00   0.83306283   0.01799712
3938.00   0.89683467   0.01856388
3940.00   0.90139484   0.01866392
3942.00   0.97349083   0.01943482
3944.00   0.99621469   0.01975929
3946.00   1.05918181   0.02006709
3948.00   1.05153811   0.01982279
3950.00   1.13122153   0.02036453
3952.00   1.26109505   0.02121870
3954.00   1.34873509   0.02186334
3956.00   1.40488768   0.02221111
3958.00   1.44598007   0.02244535
3960.00   1.43346786   0.02253371
3962.00   1.46993876   0.02276500
3964.00   1.47419822   0.02246695
3966.00   1.47350693   0.02215619
3968.00   1.47835982   0.02221121
3970.00   1.47059762   0.02212330
3972.00   1.53373933   0.02259655
3974.00   1.46813989   0.02219208
3976.00   1.49649537   0.02229773
3978.00   1.46341634   0.02216242
3980.00   1.44337928   0.02195045
3982.00   1.42962062   0.02184747
3984.00   1.36934292   0.02136193
3986.00   1.38813174   0.02137576
3988.00   1.44895363   0.02182466
3990.00   1.42682493   0.02168112
3992.00   1.46459973   0.02185687
3994.00   1.46937454   0.02199156
3996.00   1.47371244   0.02210514
3998.00   1.48939443   0.02213492
4000.00   1.43995833   0.02160870
4002.00   1.47986877   0.02175858
4004.00   1.48065305   0.02175760
4006.00   1.49745309   0.02187318
4008.00   1.54805291   0.02222238
4010.00   1.55412769   0.02229311
4012.00   1.56525040   0.02227688
4014.00   1.58023274   0.02233696
4016.00   1.55830371   0.02214590
4018.00   1.54636574   0.02234030
4020.00   1.54661131   0.02274063
4022.00   1.50893140   0.02261180
4024.00   1.53216052   0.02256780
4026.00   1.49367678   0.02200925
4028.00   1.45972872   0.02152631
4030.00   1.51702487   0.02181876
4032.00   1.54056907   0.02189039
4034.00   1.54142678   0.02172878
4036.00   1.51992047   0.02158630
4038.00   1.49597275   0.02138876
4040.00   1.46823120   0.02122187
4042.00   1.47400618   0.02136179
4044.00   1.49626231   0.02382820
4046.00   1.47097492   0.02602650
4048.00   1.52097607   0.02530326
4050.00   1.45679414   0.02202379
4052.00   1.46246541   0.02130052
4054.00   1.45487535   0.02122227
4056.00   1.51624525   0.02143921
4058.00   1.52317655   0.02123723
4060.00   1.57762706   0.02145952
4062.00   1.55588210   0.02126537
4064.00   1.50141454   0.02095116
4066.00   1.50281525   0.02095127
4068.00   1.43138826   0.02041411
4070.00   1.37493384   0.02001185
4072.00   1.36624479   0.01987257
4074.00   1.38852596   0.02009849
4076.00   1.40392625   0.02072693
4078.00   1.46362579   0.02127150
4080.00   1.53276277   0.02141352
4082.00   1.68059909   0.02202819
4084.00   1.76175606   0.02235506
4086.00   1.85379851   0.02277711
4088.00   1.87205040   0.02275955
4090.00   1.88066387   0.02255055
4092.00   1.90832877   0.02262343
4094.00   1.87528360   0.02244790
4096.00   1.86439812   0.02232143
4098.00   1.85581136   0.02225276
4100.00   1.78455067   0.02182035
4102.00   1.77533317   0.02168725
4104.00   1.73691630   0.02141882
4106.00   1.69523287   0.02123597
4108.00   1.70512569   0.02127430
4110.00   1.68970561   0.02112936
4112.00   1.69477379   0.02107284
4114.00   1.63379431   0.02076386
4116.00   1.59473181   0.02049151
4118.00   1.54256642   0.02016639
4120.00   1.48892224   0.01976189
4122.00   1.44675088   0.01949144
4124.00   1.36601281   0.01905363
4126.00   1.39388978   0.01917624
4128.00   1.31657958   0.01870733
4130.00   1.35419488   0.01894992
4132.00   1.26725054   0.01854230
4134.00   1.29024220   0.01862766
4136.00   1.28983748   0.01851468
4138.00   1.25988901   0.01836064
4140.00   1.22420800   0.01816327
4142.00   1.21285272   0.01795484
4144.00   1.21259749   0.01769988
4146.00   1.23028219   0.01782211
4148.00   1.21994138   0.01774233
4150.00   1.21393037   0.01781234
4152.00   1.25915742   0.01818469
4154.00   1.25646293   0.01811588
4156.00   1.30697262   0.01828250
4158.00   1.32031918   0.01829432
4160.00   1.38312328   0.01871713
4162.00   1.46056044   0.01960450
4164.00   1.51620924   0.01962553
4166.00   1.52044749   0.01968844
4168.00   1.57329512   0.01973321
4170.00   1.52088916   0.01931426
4172.00   1.54336393   0.01932197
4174.00   1.49411166   0.01901176
4176.00   1.46205223   0.01879015
4178.00   1.47567308   0.01889750
4180.00   1.41896367   0.01850474
4182.00   1.38784957   0.01823074
4184.00   1.33228970   0.01790177
4186.00   1.30498147   0.01772672
4188.00   1.23689723   0.01727827
4190.00   1.18173420   0.01693472
4192.00   1.14850354   0.01670866
4194.00   1.10576117   0.01644119
4196.00   1.08867848   0.01623807
4198.00   1.08307445   0.01616588
4200.00   1.02442610   0.01574481
4202.00   0.98678511   0.01548414
4204.00   0.97918320   0.01549416
4206.00   0.97922069   0.01556672
4208.00   0.96193498   0.01546165
4210.00   0.95292890   0.01540569
4212.00   0.97809815   0.01555549
4214.00   0.97650701   0.01547109
4216.00   0.98806983   0.01551736
4218.00   0.99044162   0.01552591
4220.00   1.03696489   0.01572057
4222.00   1.01449132   0.01559126
4224.00   1.02921057   0.01565134
4226.00   1.05224884   0.01571204
4228.00   1.08367074   0.01591932
4230.00   1.09050751   0.01600609
4232.00   1.07593441   0.01598798
4234.00   1.03387165   0.01571286
4236.00   0.98412275   0.01544384
4238.00   0.96616310   0.01526519
4240.00   0.95877063   0.01516282
4242.00   0.88004625   0.01452829
4244.00   0.87436116   0.01476195
4246.00   0.84087831   0.01496470
4248.00   0.80260766   0.01464982
4250.00   0.78305024   0.01399693
4252.00   0.78734207   0.01382281
4254.00   0.79694176   0.01389184
4256.00   0.76523036   0.01367731
4258.00   0.76223570   0.01360184
4260.00   0.73641664   0.01332672
4262.00   0.75620222   0.01340244
4264.00   0.73996794   0.01332743
4266.00   0.77398443   0.01350693
4268.00   0.75098664   0.01335010
4270.00   0.79138023   0.01359592
4272.00   0.77144986   0.01342606
4274.00   0.80479991   0.01362923
4276.00   0.79898274   0.01364839
4278.00   0.78313768   0.01350949
4280.00   0.81856918   0.01380440
4282.00   0.83138043   0.01389960
4284.00   0.83488196   0.01387756
4286.00   0.85603786   0.01394401
4288.00   0.84387243   0.01383309
4290.00   0.83372855   0.01376421
4292.00   0.82836092   0.01377949
4294.00   0.83401006   0.01386224
4296.00   0.84894753   0.01397560
4298.00   0.86262840   0.01400287
4300.00   0.86138606   0.01393030
4302.00   0.83081388   0.01376066
4304.00   0.84993351   0.01391385
4306.00   0.85676074   0.01402372
4308.00   0.87147790   0.01408876
4310.00   0.89970791   0.01432820
4312.00   0.93592012   0.01485002
4314.00   0.97944438   0.01530628
4316.00   1.04604411   0.01552354
4318.00   1.11517096   0.01588749
4320.00   1.12439346   0.01602165
4322.00   1.13137388   0.01603189
4324.00   1.18767142   0.01622149
4326.00   1.17334127   0.01609979
4328.00   1.18961251   0.01605578
4330.00   1.18164515   0.01601243
4332.00   1.18239605   0.01603408
4334.00   1.19270110   0.01610209
4336.00   1.18665302   0.01611609
4338.00   1.17434072   0.01607885
4340.00   1.13213134   0.01582871
4342.00   1.07054019   0.01547998
4344.00   1.05152583   0.01550730
4346.00   1.03007662   0.01558636
4348.00   1.03479040   0.01563920
4350.00   1.02154791   0.01541778
4352.00   1.01047981   0.01532109
4354.00   1.01422739   0.01599419
4356.00   0.98220235   0.02029365
4358.00   0.98839772   0.02286089
4360.00   0.97036344   0.02084639
4362.00   1.01935077   0.01738234
4364.00   0.98287570   0.01563572
4366.00   1.00344133   0.01540890
4368.00   1.04095197   0.01550752
4370.00   1.02891934   0.01541828
4372.00   1.07392263   0.01573624
4374.00   1.07557619   0.01582106
4376.00   1.11960661   0.01596319
4378.00   1.16230071   0.01606718
4380.00   1.19000161   0.01610484
4382.00   1.23376131   0.01627044
4384.00   1.20125651   0.01602537
4386.00   1.19295859   0.01596463
4388.00   1.22193003   0.01606136
4390.00   1.19305122   0.01593635
4392.00   1.20249665   0.01601020
4394.00   1.20693254   0.01595938
4396.00   1.23598552   0.01613668
4398.00   1.27538753   0.01638802
4400.00   1.27639103   0.01645741
4402.00   1.29616404   0.01651165
4404.00   1.29580557   0.01638409
4406.00   1.25760758   0.01617101
4408.00   1.26043618   0.01618927
4410.00   1.25055373   0.01613281
4412.00   1.22101760   0.01595891
4414.00   1.19067335   0.01587702
4416.00   1.23224044   0.01606865
4418.00   1.20450723   0.01582349
4420.00   1.21911633   0.01586467
4422.00   1.23247635   0.01589817
4424.00   1.28599012   0.01611471
4426.00   1.25975978   0.01599142
4428.00   1.25507104   0.01591488
4430.00   1.27320910   0.01604499
4432.00   1.27737582   0.01606113
4434.00   1.29164600   0.01609498
4436.00   1.26468229   0.01598963
4438.00   1.24903607   0.01596247
4440.00   1.28935456   0.01614949
4442.00   1.27077115   0.01602560
4444.00   1.28158176   0.01610371
4446.00   1.28414845   0.01609804
4448.00   1.31520867   0.01624766
4450.00   1.37280929   0.01658673
4452.00   1.40447807   0.01669444
4454.00   1.35104537   0.01642823
4456.00   1.29157639   0.01616512
4458.00   1.22410512   0.01583408
4460.00   1.19525576   0.01566483
4462.00   1.18829918   0.01558622
4464.00   1.13551843   0.01533637
4466.00   1.14483619   0.01535447
4468.00   1.13015652   0.01525130
4470.00   1.10095334   0.01510473
4472.00   1.08339345   0.01497147
4474.00   1.08777595   0.01502920
4476.00   1.05510509   0.01486523
4478.00   1.05937278   0.01482458
4480.00   1.07300711   0.01488315
4482.00   1.06234848   0.01486051
4484.00   1.09551680   0.01503321
4486.00   1.05353820   0.01476654
4488.00   1.06091106   0.01478278
4490.00   1.02444458   0.01459568
4492.00   1.00484359   0.01449654
4494.00   0.99882537   0.01452656
4496.00   1.00543964   0.01450829
4498.00   1.02059782   0.01458742
4500.00   1.06419945   0.01479099
4502.00   1.02492905   0.01452677
4504.00   1.05976224   0.01466606
4506.00   1.07893419   0.01478522
4508.00   1.09312773   0.01484801
4510.00   1.13409686   0.01501217
4512.00   1.13335359   0.01502096
4514.00   1.18807983   0.01527967
4516.00   1.19543326   0.01528383
4518.00   1.23065639   0.01544422
4520.00   1.25928986   0.01558561
4522.00   1.27204859   0.01564115
4524.00   1.29782629   0.01574949
4526.00   1.39303505   0.01618318
4528.00   1.40534747   0.01623482
4530.00   1.40934241   0.01627188
4532.00   1.48473144   0.01663113
4534.00   1.54100263   0.01688035
4536.00   1.64537752   0.01734729
4538.00   1.71920979   0.01766278
4540.00   1.71629095   0.01763078
4542.00   1.80990684   0.01805369
4544.00   1.85920751   0.01830915
4546.00   1.93881583   0.01862422
4548.00   2.00977063   0.01882940
4550.00   2.08645225   0.01910714
4552.00   2.14369988   0.01931982
4554.00   2.18435264   0.01949080
4556.00   2.25867653   0.01979510
4558.00   2.35238266   0.02012615
4560.00   2.41417003   0.02033205
4562.00   2.57835627   0.02091843
4564.00   2.71886396   0.02141604
4566.00   2.86208081   0.02190313
4568.00   2.96769834   0.02224495
4570.00   3.06165481   0.02257005
4572.00   3.20198655   0.02304691
4574.00   3.22610402   0.02311001
4576.00   3.25934052   0.02320853
4578.00   3.24812984   0.02314116
4580.00   3.28031111   0.02325215
4582.00   3.24425673   0.02308575
4584.00   3.18271208   0.02286027
4586.00   3.14925146   0.02273658
4588.00   3.11210394   0.02263268
4590.00   3.05799818   0.02243676
4592.00   3.02259064   0.02230301
4594.00   2.91961074   0.02195057
4596.00   2.88205433   0.02181832
4598.00   2.89046216   0.02181664
4600.00   2.90825629   0.02185214
4602.00   2.90650272   0.02183376
4604.00   2.87652779   0.02174319
4606.00   2.89074063   0.02177871
4608.00   2.89328694   0.02181344
4610.00   2.92564964   0.02191267
4612.00   2.94590211   0.02196720
4614.00   2.99245548   0.02210724
4616.00   2.99584198   0.02210297
4618.00   2.99531484   0.02209396
4620.00   3.05952621   0.02229884
4622.00   3.01947355   0.02218957
4624.00   3.00891542   0.02215818
4626.00   2.94535232   0.02192810
4628.00   2.95865059   0.02198910
4630.00   3.00067973   0.02211034
4632.00   3.00158215   0.02224464
4634.00   2.99217415   0.02212096
4636.00   3.06568027   0.02230702
4638.00   3.05118680   0.02225933
4640.00   3.08193254   0.02238589
4642.00   3.09993172   0.02243312
4644.00   3.13058090   0.02253277
4646.00   3.18443537   0.02269514
4648.00   3.21279073   0.02278565
4650.00   3.19460344   0.02272967
4652.00   3.21393490   0.02282383
4654.00   3.19233513   0.02275786
4656.00   3.22625256   0.02286377
4658.00   3.18746376   0.02275724
4660.00   3.19906712   0.02283016
4662.00   3.13385940   0.02263581
4664.00   3.14340711   0.02268887
4666.00   3.13776135   0.02269936
4668.00   3.10427403   0.02260626
4670.00   3.07812381   0.02255135
4672.00   3.01746964   0.02233037
4674.00   3.07969689   0.02247313
4676.00   3.03633833   0.02228049
4678.00   2.96927905   0.02199912
4680.00   2.98574424   0.02201227
4682.00   3.01801610   0.02209856
4684.00   2.99957323   0.02199628
4686.00   3.02149606   0.02205795
4688.00   3.03893614   0.02208551
4690.00   3.00275660   0.02192943
4692.00   2.98882651   0.02184737
4694.00   2.99379992   0.02183411
4696.00   2.94379735   0.02167097
4698.00   2.86625957   0.02138242
4700.00   2.89287114   0.02143152
4702.00   2.84248304   0.02124793
4704.00   2.82338238   0.02116848
4706.00   2.80519199   0.02112878
4708.00   2.75135422   0.02095176
4710.00   2.70975661   0.02079208
4712.00   2.69120550   0.02070250
4714.00   2.66798449   0.02060565
4716.00   2.61741328   0.02040803
4718.00   2.61965942   0.02037117
4720.00   2.61522484   0.02033826
4722.00   2.56518292   0.02015527
4724.00   2.54927421   0.02008933
4726.00   2.53697920   0.02010056
4728.00   2.51110697   0.02008056
4730.00   2.46577430   0.01994452
4732.00   2.41035247   0.01975636
4734.00   2.42271018   0.01984292
4736.00   2.41356230   0.01982621
4738.00   2.38487434   0.01978318
4740.00   2.37285423   0.01980262
4742.00   2.36526346   0.01982701
4744.00   2.35431600   0.01970035
4746.00   2.30912709   0.01934459
4748.00   2.29778624   0.01919197
4750.00   2.26106501   0.01899918
4752.00   2.24613309   0.01898886
4754.00   2.22620106   0.01888182
4756.00   2.20143151   0.01870214
4758.00   2.13827324   0.01840363
4760.00   2.15332985   0.01843892
4762.00   2.09513044   0.01816248
4764.00   2.05338192   0.01798552
4766.00   2.05015898   0.01795989
4768.00   1.98063958   0.01767669
4770.00   1.94512594   0.01752112
4772.00   1.93742824   0.01748984
4774.00   1.94183397   0.01751223
4776.00   1.89989018   0.01740658
4778.00   1.90739465   0.01748655
4780.00   1.85578418   0.01726740
4782.00   1.82842422   0.01711929
4784.00   1.80685651   0.01695780
4786.00   1.75691700   0.01681797
4788.00   1.74003994   0.01664916
4790.00   1.68716145   0.01643998
4792.00   1.60224676   0.01603853
4794.00   1.57727253   0.01591034
4796.00   1.49509871   0.01551808
4798.00   1.46220720   0.01533158
4800.00   1.44128346   0.01520687
4802.00   1.38988125   0.01495730
4804.00   1.34226537   0.01473351
4806.00   1.31547713   0.01461915
4808.00   1.32873476   0.01467678
4810.00   1.32804084   0.01466002
4812.00   1.29963684   0.01450745
4814.00   1.24200070   0.01425023
4816.00   1.28016818   0.01440884
4818.00   1.29257822   0.01451232
4820.00   1.35392988   0.01480311
4822.00   1.41073155   0.01506056
4824.00   1.51465261   0.01555382
4826.00   1.63252020   0.01608918
4828.00   1.79067373   0.01671277
4830.00   1.95748770   0.01742376
4832.00   2.18651342   0.01831033
4834.00   2.39367151   0.01903764
4836.00   2.61537433   0.01984091
4838.00   2.84557700   0.02066864
4840.00   3.01679945   0.02123981
4842.00   3.16770697   0.02166476
4844.00   3.24461508   0.02187155
4846.00   3.33746982   0.02214919
4848.00   3.37438774   0.02225986
4850.00   3.41117001   0.02236519
4852.00   3.50209761   0.02260160
4854.00   3.46968579   0.02249492
4856.00   3.53391504   0.02265654
4858.00   3.58977580   0.02279641
4860.00   3.52921486   0.02262067
4862.00   3.52213764   0.02259887
4864.00   3.46716070   0.02244629
4866.00   3.42157221   0.02229385
4868.00   3.36522508   0.02211503
4870.00   3.30256605   0.02189223
4872.00   3.21174860   0.02160251
4874.00   3.15433955   0.02142189
4876.00   3.06979322   0.02116400
4878.00   3.04049110   0.02110418
4880.00   3.01476121   0.02179195
4882.00   2.93789029   0.02072226
4884.00   2.85291386   0.02045273
4886.00   2.79242587   0.02020281
4888.00   2.79963374   0.02017893
4890.00   2.82141232   0.02024356
4892.00   2.85045004   0.02035597
4894.00   2.89504170   0.02051644
4896.00   2.98485899   0.02077210
4898.00   3.11257148   0.02118351
4900.00   3.18899655   0.02140030
4902.00   3.33230877   0.02184839
4904.00   3.50862265   0.02234967
4906.00   3.62513185   0.02269326
4908.00   3.72739935   0.02300660
4910.00   3.74632096   0.02305754
4912.00   3.84381533   0.02332683
4914.00   3.89535713   0.02346184
4916.00   3.94671726   0.02358799
4918.00   3.94992495   0.02357666
4920.00   3.97475147   0.02364658
4922.00   3.97399664   0.02361876
4924.00   3.95875692   0.02356896
4926.00   4.00962400   0.02368420
4928.00   4.01197433   0.02366495
4930.00   3.99853086   0.02361490
4932.00   3.96344113   0.02350469
4934.00   3.94249868   0.02345340
4936.00   3.93811727   0.02343410
4938.00   3.83632421   0.02314514
4940.00   3.83226109   0.02310051
4942.00   3.77013063   0.02292345
4944.00   3.74671149   0.02283534
4946.00   3.67362428   0.02261151
4948.00   3.54684901   0.02222906
4950.00   3.47308326   0.02200925
4952.00   3.42036533   0.02188825
4954.00   3.30141497   0.02153464
4956.00   3.25272989   0.02133274
4958.00   3.10799360   0.02086841
4960.00   3.03142595   0.02062176
4962.00   2.91959453   0.02027396
4964.00   2.84724760   0.02004373
4966.00   2.73420095   0.01969524
4968.00   2.66292024   0.01948628
4970.00   2.57260990   0.01920091
4972.00   2.48744869   0.01900312
4974.00   2.42857361   0.01888975
4976.00   2.36655736   0.01876359
4978.00   2.33434510   0.01881414
4980.00   2.30932283   0.01884671
4982.00   2.26973057   0.01876207
4984.00   2.24901700   0.01867015
4986.00   2.31483722   0.01882707
4988.00   2.40321827   0.01901206
4990.00   2.50097775   0.01926910
4992.00   2.59070849   0.01950057
4994.00   2.74380064   0.01994524
4996.00   2.91302443   0.02040095
4998.00   3.02155304   0.02070899
5000.00   3.10622787   0.02093224
5002.00   3.22525024   0.02128132
5004.00   3.33157301   0.02157580
5006.00   3.41624999   0.02181286
5008.00   3.51466227   0.02208129
5010.00   3.50752735   0.02207463
5012.00   3.56203103   0.02222438
5014.00   3.63147688   0.02240845
5016.00   3.67279482   0.02253609
5018.00   3.68579531   0.02261310
5020.00   3.66272378   0.02254486
5022.00   3.67313242   0.02256555
5024.00   3.67855000   0.02257158
5026.00   3.63743067   0.02245185
5028.00   3.62434554   0.02243621
5030.00   3.54851484   0.02224342
5032.00   3.46376753   0.02198449
5034.00   3.39576054   0.02174729
5036.00   3.37671566   0.02165629
5038.00   3.33292532   0.02151961
5040.00   3.30900216   0.02143646
5042.00   3.25522780   0.02126601
5044.00   3.25786066   0.02128597
5046.00   3.30173039   0.02144193
5048.00   3.24765801   0.02127475
5050.00   3.21987271   0.02120083
5052.00   3.21059847   0.02117093
5054.00   3.15121269   0.02099426
5056.00   3.13177037   0.02093456
5058.00   3.06522226   0.02072993
5060.00   2.99119067   0.02050976
5062.00   2.94482660   0.02041984
5064.00   2.91997361   0.02037501
5066.00   2.86202812   0.02021536
5068.00   2.76087117   0.01996840
5070.00   2.74406672   0.01991578
5072.00   2.66632628   0.01963437
5074.00   2.62031436   0.01943905
5076.00   2.56015825   0.01923404
5078.00   2.50889707   0.01909796
5080.00   2.44507217   0.01908626
5082.00   2.41377258   0.01922065
5084.00   2.37969851   0.01926315
5086.00   2.32300758   0.01906727
5088.00   2.28843665   0.01882378
5090.00   2.24108648   0.01845224
5092.00   2.21875000   0.01816908
5094.00   2.17355013   0.01797784
5096.00   2.15980959   0.01794341
5098.00   2.12729025   0.01790203
5100.00   2.13299990   0.01794926
5102.00   2.08580303   0.01770828
5104.00   2.09735370   0.01768560
5106.00   2.06213331   0.01747869
5108.00   2.03585768   0.01739139
5110.00   2.01902461   0.01735490
5112.00   1.96285176   0.01716350
5114.00   1.92327023   0.01703888
5116.00   1.84923971   0.01673817
5118.00   1.77687240   0.01644551
5120.00   1.70653546   0.01611983
5122.00   1.65206921   0.01588872
5124.00   1.62290144   0.01574813
5126.00   1.59652054   0.01562456
5128.00   1.56251490   0.01552707
5130.00   1.56744826   0.01555684
5132.00   1.54003918   0.01547235
5134.00   1.55104101   0.01550491
5136.00   1.55580425   0.01556160
5138.00   1.61169577   0.01582713
5140.00   1.67565536   0.01611603
5142.00   1.71417165   0.01630312
5144.00   1.79559362   0.01667782
5146.00   1.87855697   0.01708740
5148.00   1.98088527   0.01756109
5150.00   2.03152394   0.01785312
5152.00   2.08535337   0.01815242
5154.00   2.11390543   0.01831645
5156.00   2.17773819   0.01855184
5158.00   2.21886969   0.01868508
5160.00   2.29034901   0.01890676
5162.00   2.34994984   0.01908376
5164.00   2.41135812   0.01930904
5166.00   2.52075100   0.01969759
5168.00   2.57454801   0.01987704
5170.00   2.61473107   0.02004301
5172.00   2.68113422   0.02029649
5174.00   2.67353082   0.02031618
5176.00   2.74250388   0.02059577
5178.00   2.79392576   0.02079352
5180.00   2.83346486   0.02092325
5182.00   2.88263226   0.02111161
5184.00   2.91780496   0.02125204
5186.00   2.92882037   0.02132372
5188.00   2.94954371   0.02142278
5190.00   2.93018889   0.02137661
5192.00   2.95615554   0.02149089
5194.00   2.89885330   0.02131216
5196.00   2.89349198   0.02136320
5198.00   2.91771460   0.02150457
5200.00   2.92420745   0.02155694
5202.00   2.97954535   0.02173148
5204.00   3.01421738   0.02188512
5206.00   3.00619769   0.02184835
5208.00   3.10577774   0.02227242
5210.00   3.11656094   0.02237075
5212.00   3.11758327   0.02240545
5214.00   3.19479036   0.02267357
5216.00   3.17250800   0.02262823
5218.00   3.16947246   0.02270352
5220.00   3.17356133   0.02275307
5222.00   3.20062041   0.02288215
5224.00   3.14793968   0.02272763
5226.00   3.10293245   0.02258398
5228.00   3.10242534   0.02261434
5230.00   3.08331943   0.02257857
5232.00   3.03040290   0.02242471
5234.00   3.01884151   0.02241952
5236.00   2.96483302   0.02227156
5238.00   2.92868519   0.02222424
5240.00   2.99927521   0.02247884
5242.00   2.92519522   0.02225373
5244.00   2.99265242   0.02249628
5246.00   2.99903655   0.02254273
5248.00   3.00987911   0.02261562
5250.00   3.01400828   0.02267265
5252.00   3.06715846   0.02289570
5254.00   3.15598631   0.02327910
5256.00   3.15483594   0.02333364
5258.00   3.15264988   0.02338742
5260.00   3.15649080   0.02342659
5262.00   3.17329407   0.02348237
5264.00   3.13602996   0.02336987
5266.00   3.11562276   0.02333224
5268.00   3.07322025   0.02320582
5270.00   3.06651378   0.02321562
5272.00   2.96159983   0.02290378
5274.00   2.93621492   0.02287397
5276.00   2.92368126   0.02287700
5278.00   2.87145734   0.02274415
5280.00   2.82278800   0.02308365
5282.00   2.79880571   0.02370365
5284.00   2.79268909   0.02254622
5286.00   2.75635839   0.02253736
5288.00   2.78556323   0.02268868
5290.00   2.88382602   0.02309250
5292.00   2.94026899   0.02333215
5294.00   2.93089747   0.02333325
5296.00   2.98533821   0.02359585
5298.00   3.04703164   0.02389229
5300.00   3.10203695   0.02415853
5302.00   3.08099508   0.02412245
5304.00   3.11820102   0.02432976
5306.00   3.22981358   0.02478061
5308.00   3.29823780   0.02509208
5310.00   3.30227780   0.02517637
5312.00   3.37427521   0.02549122
5314.00   3.43456078   0.02575682
5316.00   3.51503205   0.02612470
5318.00   3.47205877   0.02600958
5320.00   3.48078990   0.02612760
5322.00   3.53125739   0.02636545
5324.00   3.50025964   0.02631026
5326.00   3.43215871   0.02613415
5328.00   3.48933554   0.02638814
5330.00   3.40806007   0.02618482
5332.00   3.39970279   0.02623397
5334.00   3.42918968   0.02639518
5336.00   3.49827123   0.02672089
5338.00   3.47316241   0.02671673
5340.00   3.45547414   0.02673482
5342.00   3.45059919   0.02683487
5344.00   3.43872523   0.02681383
5346.00   3.45437145   0.02698373
5348.00   3.46962166   0.02719512
5350.00   3.38014841   0.02692799
5352.00   3.46826458   0.02730712
5354.00   3.47052240   0.02743999
5356.00   3.45462537   0.02746746
5358.00   3.48836803   0.02760755
5360.00   3.47502589   0.02756706
5362.00   3.53635049   0.02779631
5364.00   3.49951100   0.02770295
5366.00   3.47178483   0.02767129
5368.00   3.50558758   0.02788292
5370.00   3.46391678   0.02780115
5372.00   3.47050357   0.02794643
5374.00   3.45247674   0.02801883
5376.00   3.41889238   0.02803111
5378.00   3.42591190   0.02807660
5380.00   3.38495421   0.02799475
5382.00   3.47235560   0.02839264
5384.00   3.45434284   0.02837638
5386.00   3.41782761   0.02837108
5388.00   3.43466115   0.02853421
5390.00   3.48570919   0.02884628
5392.00   3.50722480   0.02905982
5394.00   3.50152612   0.02906480
5396.00   3.56324172   0.02939417
5398.00   3.55775785   0.02943746
5400.00   3.62019205   0.02974331
5402.00   3.69610882   0.03009883
5404.00   3.64727044   0.03001442
5406.00   3.62781334   0.03002021
5408.00   3.62777996   0.03008894
5410.00   3.62304425   0.03016913
5412.00   3.62463331   0.03028715
5414.00   3.62443161   0.03039868
5416.00   3.59877205   0.03041780
5418.00   3.50298643   0.03014114
5420.00   3.53924012   0.03034012
5422.00   3.54150701   0.03038773
5424.00   3.46716189   0.03014541
5426.00   3.56828284   0.03055905
5428.00   3.45414519   0.03017648
5430.00   3.52913737   0.03050425
5432.00   3.48108077   0.03031676
5434.00   3.43402982   0.03019084
5436.00   3.44040036   0.03057187
5438.00   3.40659976   0.03038979
5440.00   3.39479804   0.01228782
5442.00   3.40536165   0.01203043
5444.00   3.38180113   0.01222934
5446.00   3.31900215   0.01316279
5448.00   3.27219772   0.01357543
5450.00   3.24797201   0.01306003
5452.00   3.23546386   0.01240011
5454.00   3.23105288   0.01291060
5456.00   3.24270701   0.01439957
5458.00   3.23462892   0.01457266
5460.00   3.20533776   0.01338162
5462.00   3.19351745   0.01326961
5464.00   3.21494460   0.01491441
5466.00   3.22672534   0.01617764
5468.00   3.18159842   0.01538182
5470.00   3.09301710   0.01287379
5472.00   3.05659175   0.01176386
5474.00   3.04471183   0.01131481
5476.00   3.04407096   0.01116362
5478.00   3.06900096   0.01157770
5480.00   3.09044266   0.01210560
5482.00   3.08891487   0.01261180
5484.00   3.07565403   0.01314671
5486.00   3.07228231   0.01305562
5488.00   3.07019019   0.01200518
5490.00   3.07267165   0.01183729
5492.00   3.07457733   0.01256725
5494.00   3.08734155   0.01288438
5496.00   3.11559081   0.01214680
5498.00   3.15489244   0.01098171
5500.00   3.19879079   0.01113667
5502.00   3.25408435   0.01247942
5504.00   3.30376124   0.01290971
5506.00   3.35379410   0.01298031
5508.00   3.40182114   0.01304831
5510.00   3.45354557   0.01311586
5512.00   3.49824333   0.01318471
5514.00   3.51529694   0.01338331
5516.00   3.50591946   0.01381445
5518.00   3.51106930   0.01357566
5520.00   3.51525474   0.01247630
5522.00   3.52609301   0.01184221
5524.00   3.55175948   0.01127366
5526.00   3.57250643   0.01151185
5528.00   3.57086277   0.01323531
5530.00   3.55558395   0.01570392
5532.00   3.51882195   0.01855404
5534.00   3.42603922   0.02379257
5536.00   3.39547348   0.02455604
5538.00   3.42646718   0.02079628
5540.00   3.46449184   0.01602824
5542.00   3.48777270   0.01344120
5544.00   3.50743484   0.01205489
5546.00   3.49165916   0.01141880
5548.00   3.43746543   0.01264976
5550.00   3.39220500   0.01333742
5552.00   3.32280135   0.01429198
5554.00   3.28388238   0.01501201
5556.00   3.30552769   0.01538077
5558.00   3.35450840   0.01555351
5560.00   3.36196756   0.01564538
5562.00   3.36585379   0.01557470
5564.00   3.31933665   0.01550709
5566.00   3.18898726   0.01548075
5568.00   3.11141014   0.01523926
5570.00   3.11813450   0.01467173
5572.00   3.15070510   0.01393712
5574.00   3.14213920   0.01326415
5576.00   3.11536598   0.01248030
5578.00   3.09774661   0.01199921
5580.00   3.08228230   0.01187640
5582.00   3.06385827   0.01165005
5584.00   3.04396343   0.01117826
5586.00   3.02048302   0.01086848
5588.00   2.98845553   0.01116725
5590.00   2.94804525   0.01190003
5592.00   2.92637181   0.01233422
5594.00   2.93402171   0.01309267
5596.00   2.90836525   0.01299874
5598.00   2.84556103   0.01168375
5600.00   2.78547955   0.01045560
5602.00   2.74955654   0.01046981
5604.00   2.72537303   0.01113472
5606.00   2.70012665   0.01109844
5608.00   2.67609859   0.01045218
5610.00   2.66079903   0.01048300
5612.00   2.65974212   0.01128046
5614.00   2.65260601   0.01163374
5616.00   2.62879014   0.01107742
5618.00   2.60016251   0.01007568
5620.00   2.59072232   0.00967183
5622.00   2.59099793   0.00961036
5624.00   2.60241318   0.00951906
5626.00   2.63316822   0.00950261
5628.00   2.65844369   0.00959699
5630.00   2.66997099   0.00983118
5632.00   2.68350220   0.01013641
5634.00   2.72014761   0.01044985
5636.00   2.77481294   0.01088018
5638.00   2.82603765   0.01092329
5640.00   2.88835406   0.01056388
5642.00   2.93832779   0.01034894
5644.00   2.97143173   0.01024727
5646.00   3.00343943   0.01021160
5648.00   3.04874253   0.01026315
5650.00   3.10193849   0.01040889
5652.00   3.14512539   0.01041180
5654.00   3.19057226   0.00982347
5656.00   3.21822834   0.01032798
5658.00   3.21927309   0.01217870
5660.00   3.22555208   0.01346189
5662.00   3.25788522   0.01350159
5664.00   3.30327463   0.01285924
5666.00   3.32947016   0.01229849
5668.00   3.34325981   0.01110276
5670.00   3.36021233   0.01060722
5672.00   3.37561965   0.01072926
5674.00   3.39067578   0.01088627
5676.00   3.40987897   0.01089999
5678.00   3.42681742   0.01093790
5680.00   3.42213774   0.01117822
5682.00   3.39106917   0.01173179
5684.00   3.38259411   0.01183149
5686.00   3.39054012   0.01151710
5688.00   3.38976002   0.01136989
5690.00   3.37418532   0.01155006
5692.00   3.35568953   0.01175327
5694.00   3.34891081   0.01160237
5696.00   3.35133362   0.01113182
5698.00   3.34156489   0.01102765
5700.00   3.31426883   0.01128088
5702.00   3.30646753   0.01127275
5704.00   3.32737112   0.01092557
5706.00   3.34700680   0.01055475
5708.00   3.33825445   0.01043019
5710.00   3.31176353   0.01043823
5712.00   3.29764271   0.01052788
5714.00   3.28528738   0.01085466
5716.00   3.27631712   0.01096361
5718.00   3.26935816   0.01070898
5720.00   3.26702261   0.01069417
5722.00   3.27560568   0.01140727
5724.00   3.29012942   0.01242986
5726.00   3.27865076   0.01258448
5728.00   3.23611975   0.01205660
5730.00   3.21748185   0.01174759
5732.00   3.21307302   0.01135394
5734.00   3.20791292   0.01100970
5736.00   3.20107985   0.01079234
5738.00   3.19151974   0.01062587
5740.00   3.16693377   0.01034564
5742.00   3.12001014   0.00991276
5744.00   3.09976292   0.00971628
5746.00   3.10688353   0.00961765
5748.00   3.09623718   0.00970729
5750.00   3.06049037   0.01008431
5752.00   3.01463199   0.01052693
5754.00   2.97070122   0.01078749
5756.00   2.91780615   0.01106609
5758.00   2.89158559   0.01083621
5760.00   2.89467311   0.00975023
5762.00   2.88430238   0.00925581
5764.00   2.86079288   0.00951359
5766.00   2.83462024   0.00993893
5768.00   2.81052375   0.01019043
5770.00   2.78527069   0.01045589
5772.00   2.77355719   0.01039764
5774.00   2.78226542   0.00996383
5776.00   2.77349973   0.00966693
5778.00   2.74718285   0.00932360
5780.00   2.72297478   0.00913881
5782.00   2.71069741   0.00932013
5784.00   2.70441675   0.00971514
5786.00   2.69815087   0.00979714
5788.00   2.69433427   0.00966223
5790.00   2.69195938   0.00963837
5792.00   2.69381595   0.00966410
5794.00   2.69309664   0.00965833
5796.00   2.68834233   0.00960390
5798.00   2.68065858   0.00951322
5800.00   2.66909719   0.00937435
5802.00   2.64983964   0.00913543
5804.00   2.64015245   0.00901753
5806.00   2.63391590   0.00898897
5808.00   2.63359046   0.00895584
5810.00   2.64753652   0.00887525
5812.00   2.65941834   0.00883289
5814.00   2.64237761   0.00897108
5816.00   2.59984207   0.00930677
5818.00   2.58069277   0.00932417
5820.00   2.57170200   0.00906081
5822.00   2.56551456   0.00891046
5824.00   2.56569338   0.00886803
5826.00   2.56617165   0.00884794
5828.00   2.56124187   0.00880197
5830.00   2.55360961   0.00875274
5832.00   2.54355383   0.00870460
5834.00   2.52909255   0.00864328
5836.00   2.51628923   0.00860985
5838.00   2.50674152   0.00860688
5840.00   2.49326015   0.00860724
5842.00   2.46718550   0.00858370
5844.00   2.43531561   0.00855695
5846.00   2.43099928   0.00862073
5848.00   2.45253348   0.00856759
5850.00   2.46558452   0.00897305
5852.00   2.47637630   0.00995263
5854.00   2.49431062   0.01058615
5856.00   2.51949835   0.01071163
5858.00   2.55321789   0.01057378
5860.00   2.60452962   0.01033140
5862.00   2.67790890   0.00950737
5864.00   2.74009585   0.00976764
5866.00   2.79632807   0.01130721
5868.00   2.86091518   0.01188130
5870.00   2.94310021   0.01106606
5872.00   3.02425146   0.00993294
5874.00   3.07816315   0.01018109
5876.00   3.11190295   0.01143308
5878.00   3.15084076   0.01147508
5880.00   3.19356680   0.01048371
5882.00   3.21948719   0.01011884
5884.00   3.22420979   0.01042014
5886.00   3.22351503   0.01092296
5888.00   3.22576618   0.01140355
5890.00   3.22495866   0.01197488
5892.00   3.25501251   0.01231898
5894.00   3.31843185   0.01260159
5896.00   3.37032390   0.01268718
5898.00   3.41828418   0.01252303
5900.00   3.46708512   0.01232380
5902.00   3.52507997   0.01219466
5904.00   3.58491850   0.01207350
5906.00   3.60423231   0.01193396
5908.00   3.57787585   0.01157848
5910.00   3.57426023   0.01170174
5912.00   3.57388520   0.01256909
5914.00   3.57685041   0.01286995
5916.00   3.58751535   0.01201416
5918.00   3.59916162   0.01065353
5920.00   3.59362483   0.01048431
5922.00   3.57384777   0.01118025
5924.00   3.55702233   0.01162278
5926.00   3.53489804   0.01252275
5928.00   3.51615667   0.01276297
5930.00   3.49864173   0.01206562
5932.00   3.48621964   0.01101667
5934.00   3.48831511   0.01041169
5936.00   3.50684214   0.00986179
5938.00   3.50339460   0.00996260
5940.00   3.48442912   0.01100240
5942.00   3.46798110   0.01144760
5944.00   3.45392179   0.01148989
5946.00   3.43729424   0.01126116
5948.00   3.41265988   0.01064984
5950.00   3.38139176   0.00956875
5952.00   3.36650586   0.00917242
5954.00   3.35465050   0.00918596
5956.00   3.36376357   0.00944002
5958.00   3.40526462   0.01022685
5960.00   3.44052148   0.01080271
5962.00   3.45023513   0.01082266
5964.00   3.44661307   0.01055995
5966.00   3.44212842   0.01054173
5968.00   3.43038988   0.01066593
5970.00   3.41782522   0.01064008
5972.00   3.39356589   0.01047747
5974.00   3.38229990   0.01036864
5976.00   3.39538264   0.01021496
5978.00   3.41855145   0.01020395
5980.00   3.42686749   0.01097649
5982.00   3.43348551   0.01279476
5984.00   3.42339492   0.01292919
5986.00   3.38757229   0.01175907
5988.00   3.36574602   0.01072403
5990.00   3.36304021   0.00983735
5992.00   3.36712146   0.00909265
5994.00   3.36757374   0.00887846
5996.00   3.36928153   0.00922093
5998.00   3.36924171   0.00923551
6000.00   3.36986041   0.00908579
6002.00   3.36670637   0.00914510
6004.00   3.36393833   0.00952958
6006.00   3.35334516   0.00983945
6008.00   3.32206106   0.00970598
6010.00   3.27356029   0.00925641
6012.00   3.26313949   0.00946036
6014.00   3.29630947   0.01040094
6016.00   3.29474831   0.01065820
6018.00   3.26539469   0.01034182
6020.00   3.23388410   0.01003644
6022.00   3.20795512   0.01000658
6024.00   3.18395686   0.01009971
6026.00   3.17637539   0.01028306
6028.00   3.19933915   0.01084981
6030.00   3.18754101   0.01082384
6032.00   3.14795589   0.01030059
6034.00   3.11334991   0.00976985
6036.00   3.09189129   0.00931832
6038.00   3.07514930   0.00889771
6040.00   3.05592346   0.00864529
6042.00   3.03130770   0.00855954
6044.00   3.02603626   0.00849272
6046.00   3.04338312   0.00847025
6048.00   3.05157304   0.00855794
6050.00   3.04817414   0.00887705
6052.00   3.04006147   0.00916358
6054.00   3.03145790   0.00906033
6056.00   3.02039886   0.00862404
6058.00   3.00797439   0.00848037
6060.00   2.99240398   0.00834344
6062.00   2.97809410   0.00849586
6064.00   2.96278787   0.00918896
6066.00   2.95031834   0.00968534
6068.00   2.94495487   0.00939774
6070.00   2.94503140   0.00853517
6072.00   2.94138122   0.00828336
6074.00   2.93830681   0.00824066
6076.00   2.93196583   0.00850516
6078.00   2.92608881   0.00942784
6080.00   2.91333008   0.00994264
6082.00   2.88480210   0.00951777
6084.00   2.84827948   0.00852471
6086.00   2.83698249   0.00814743
6088.00   2.85875702   0.00811968
6090.00   2.84649515   0.00805585
6092.00   2.80591989   0.00808586
6094.00   2.77523637   0.00817144
6096.00   2.76466298   0.00834211
6098.00   2.76285648   0.00853899
6100.00   2.75849223   0.00859667
6102.00   2.75606608   0.00844648
6104.00   2.75520444   0.00868493
6106.00   2.75706363   0.00944785
6108.00   2.75859475   0.00972453
6110.00   2.75553322   0.00916809
6112.00   2.75669098   0.00858654
6114.00   2.77466679   0.00922970
6116.00   2.80676770   0.01075054
6118.00   2.83403254   0.01095852
6120.00   2.86350536   0.01021436
6122.00   2.89233899   0.00978211
6124.00   2.92185950   0.00949145
6126.00   2.94990873   0.00939032
6128.00   2.97546792   0.00974769
6130.00   2.99933004   0.01045306
6132.00   3.01450872   0.01016688
6134.00   3.01907563   0.00853889
6136.00   3.02698827   0.00791065
6138.00   3.03226089   0.00814398
6140.00   3.04221845   0.00860574
6142.00   3.06275606   0.00916690
6144.00   3.08909845   0.00982163
6146.00   3.10603833   0.01001693
6148.00   3.11997342   0.00967357
6150.00   3.12789440   0.00983534
6152.00   3.13291740   0.01038668
6154.00   3.12889552   0.01075275
6156.00   3.10727715   0.01093929
6158.00   3.08121514   0.01090960
6160.00   3.08124876   0.01025941
6162.00   3.10675383   0.00851560
6164.00   3.10736513   0.00784562
6166.00   3.09542465   0.00809245
6168.00   3.08030152   0.00822350
6170.00   3.05732393   0.00810581
6172.00   3.03519917   0.00810412
6174.00   3.02984953   0.00861582
6176.00   3.04078341   0.00955453
6178.00   3.02234483   0.00983748
6180.00   2.98304772   0.00989571
6182.00   2.94225669   0.00961507
6184.00   2.89085960   0.00866056
6186.00   2.84365654   0.00766676
6188.00   2.81392884   0.00734567
6190.00   2.79548264   0.00745823
6192.00   2.77802873   0.00777000
6194.00   2.77196288   0.00850369
6196.00   2.75493884   0.00904840
6198.00   2.72475100   0.00972100
6200.00   2.70004010   0.01008901
6202.00   2.68631029   0.00992152
6204.00   2.68102384   0.00940953
6206.00   2.69476581   0.00905855
6208.00   2.73389816   0.00864900
6210.00   2.76359630   0.00828965
6212.00   2.79464030   0.00784986
6214.00   2.82568765   0.00761235
6216.00   2.86128116   0.00765718
6218.00   2.89376950   0.00791702
6220.00   2.90374899   0.00835645
6222.00   2.89209795   0.00906586
6224.00   2.88919115   0.00952441
6226.00   2.87756801   0.01013350
6228.00   2.88097811   0.01024236
6230.00   2.90529370   0.00958010
6232.00   2.93637085   0.00871289
6234.00   2.96186328   0.00847332
6236.00   2.99179745   0.00857533
6238.00   2.99176073   0.00884977
6240.00   2.95801830   0.00961586
6242.00   2.93674374   0.00995998
6244.00   2.91712976   0.00994653
6246.00   2.90872049   0.00981935
6248.00   2.92649412   0.00969518
6250.00   2.96460223   0.00950781
6252.00   2.97399569   0.00941581
6254.00   2.96748519   0.00937553
6256.00   2.95796514   0.00935916
6258.00   2.93759990   0.00949227
6260.00   2.91893578   0.00946870
6262.00   2.90902686   0.00908423
6264.00   2.90254045   0.00846907
6266.00   2.88880968   0.00807440
6268.00   2.86940050   0.00755841
6270.00   2.85229516   0.00758713
6272.00   2.82965779   0.00816763
6274.00   2.81666040   0.00870316
6276.00   2.82240319   0.00925477
6278.00   2.83347154   0.00968382
6280.00   2.82278037   0.00947612
6282.00   2.78562021   0.00848233
6284.00   2.79230952   0.00817862
6286.00   2.84052348   0.00815619
6288.00   2.87295866   0.00838968
6290.00   2.89381385   0.00901804
6292.00   2.90021300   0.00967169
6294.00   2.87537980   0.01001506
6296.00   2.81681418   0.01027904
6298.00   2.79856706   0.01005586
6300.00   2.80662084   0.00903023
6302.00   2.80980277   0.00845442
6304.00   2.81590629   0.00830790
6306.00   2.81755328   0.00836872
6308.00   2.80562925   0.00862410
6310.00   2.78413773   0.00908423
6312.00   2.77303433   0.00895280
6314.00   2.76234174   0.00786730
6316.00   2.76227689   0.00782527
6318.00   2.78263545   0.00886351
6320.00   2.79199839   0.00963207
6322.00   2.77351141   0.00968808
6324.00   2.74023366   0.00944699
6326.00   2.71828079   0.00953918
6328.00   2.68787336   0.00993658
6330.00   2.68458319   0.00992332
6332.00   2.71698046   0.00956843
6334.00   2.73191547   0.00926118
6336.00   2.71428180   0.00907441
6338.00   2.68375802   0.00894737
6340.00   2.66372871   0.00889747
6342.00   2.64043403   0.00895938
6344.00   2.63489962   0.00895087
6346.00   2.64767623   0.00904563
6348.00   2.65787673   0.00889736
6350.00   2.67038679   0.00823293
6352.00   2.67740107   0.00757371
6354.00   2.66556168   0.00781088
6356.00   2.63892794   0.00875123
6358.00   2.61132741   0.00873016
6360.00   2.57296729   0.00775219
6362.00   2.54032493   0.00747405
6364.00   2.50966239   0.00795689
6366.00   2.48386002   0.00854247
6368.00   2.46583414   0.00901019
6370.00   2.45414400   0.00949483
6372.00   2.44740462   0.00922452
6374.00   2.45477724   0.00766829
6376.00   2.44792008   0.00716655
6378.00   2.42743468   0.00768569
6380.00   2.40904284   0.00818916
6382.00   2.40307760   0.00833252
6384.00   2.40048814   0.00838510
6386.00   2.37581134   0.00856799
6388.00   2.32904816   0.00895652
6390.00   2.29286671   0.00898694
6392.00   2.25994253   0.00840304
6394.00   2.22363925   0.00838914
6396.00   2.18563199   0.00945645
6398.00   2.14239979   0.01067334
6400.00   2.08123493   0.01100391
6402.00   1.99109781   0.01092378
6404.00   1.94767463   0.01056142
6406.00   1.94543803   0.00944969
6408.00   1.93114877   0.00865401
6410.00   1.90803027   0.00840863
6412.00   1.87572181   0.00831506
6414.00   1.82387745   0.00797492
6416.00   1.75176275   0.00751535
6418.00   1.70161378   0.00719567
6420.00   1.66181338   0.00703535
6422.00   1.62564194   0.00674965
6424.00   1.59635580   0.00619819
6426.00   1.56873238   0.00576530
6428.00   1.53990448   0.00590313
6430.00   1.51149344   0.00640453
6432.00   1.47533154   0.00632841
6434.00   1.42760015   0.00562846
6436.00   1.38997567   0.00547104
6438.00   1.35865200   0.00588688
6440.00   1.33009493   0.00612861
6442.00   1.30374146   0.00582296
6444.00   1.27966499   0.00526761
6446.00   1.25498390   0.00536990
6448.00   1.23114848   0.00600769
6450.00   1.20677185   0.00637718
6452.00   1.17252743   0.00685299
6454.00   1.15562570   0.00707415
6456.00   1.16939163   0.00693179
6458.00   1.19349384   0.00661147
6460.00   1.19254720   0.00640268
6462.00   1.17135715   0.00613198
6464.00   1.17416298   0.00608086
6466.00   1.19203973   0.00626160
6468.00   1.21062100   0.00639200
6470.00   1.23101902   0.00654968
6472.00   1.25275457   0.00661360
6474.00   1.27207565   0.00635520
6476.00   1.28835595   0.00574864
6478.00   1.32041669   0.00556246
6480.00   1.36398160   0.00566939
6482.00   1.41319847   0.00576698
6484.00   1.46707749   0.00586945
6486.00   1.53019047   0.00605166
6488.00   1.60675526   0.00638473
6490.00   1.69477785   0.00681415
6492.00   1.78331065   0.00703584
6494.00   1.87428367   0.00715092
6496.00   1.97374976   0.00722447
6498.00   2.07818913   0.00715117
6500.00   2.19296932   0.00717175
6502.00   2.31693983   0.00738287
6504.00   2.45259142   0.00770171
6506.00   2.61649299   0.00805343
6508.00   2.80849576   0.00837292
6510.00   3.00735736   0.00894653
6512.00   3.21867037   0.00939004
6514.00   3.44450641   0.01041728
6516.00   3.68391132   0.01228379
6518.00   3.93871951   0.01412391
6520.00   4.21148968   0.01501250
6522.00   4.49105453   0.01533991
6524.00   4.82663441   0.01589063
6526.00   5.25690842   0.01661319
6528.00   5.62125826   0.01694558
6530.00   5.93166637   0.01677941
6532.00   6.18509817   0.01646428
6534.00   6.35150051   0.01630767
6536.00   6.43253469   0.01611470
6538.00   6.52747297   0.01639544
6540.00   6.58334494   0.01762420
6542.00   6.66424656   0.01772100
6544.00   6.77006912   0.01641162
6546.00   6.87612724   0.01508015
6548.00   6.97216606   0.01498424
6550.00   7.06378508   0.01556994
6552.00   7.12312508   0.01542770
6554.00   7.17639256   0.01478562
6556.00   7.16923618   0.01446101
6558.00   7.07451630   0.01424479
6560.00   6.99786854   0.01419186
6562.00   6.98754597   0.01443398
6564.00   7.00464201   0.01481483
6566.00   6.98734951   0.01478940
6568.00   6.95600939   0.01419670
6570.00   6.91955090   0.01434229
6572.00   6.86957979   0.01524818
6574.00   6.82217884   0.01570373
6576.00   6.77725649   0.01548133
6578.00   6.73624563   0.01494954
6580.00   6.70690012   0.01450939
6582.00   6.68518114   0.01396067
6584.00   6.67569494   0.01345276
6586.00   6.69662523   0.01296158
6588.00   6.68950891   0.01241607
6590.00   6.65185404   0.01165701
6592.00   6.59756422   0.01099933
6594.00   6.53287601   0.01092643
6596.00   6.45094252   0.01133950
6598.00   6.38755465   0.01147682
6600.00   6.33545589   0.01137295
6602.00   6.28058243   0.01170734
6604.00   6.22278357   0.01261962
6606.00   6.16803265   0.01338649
6608.00   6.11971807   0.01366851
6610.00   6.07607937   0.01368893
6612.00   6.03671932   0.01341041
6614.00   6.00564861   0.01253852
6616.00   5.97014141   0.01198320
6618.00   5.93589592   0.01154567
6620.00   5.89621258   0.01120888
6622.00   5.84638643   0.01091380
6624.00   5.79096746   0.01075019
6626.00   5.74222326   0.01106725
6628.00   5.70426559   0.01193663
6630.00   5.64561033   0.01248834
6632.00   5.55936337   0.01331784
6634.00   5.49144220   0.01351001
6636.00   5.45014668   0.01263611
6638.00   5.42409277   0.01130766
6640.00   5.40746164   0.01085770
6642.00   5.41563988   0.01097775
6644.00   5.38332701   0.01095767
6646.00   5.31334496   0.01124890
6648.00   5.25827360   0.01117015
6650.00   5.21380568   0.01046482
6652.00   5.18084574   0.00971275
6654.00   5.17284250   0.00965969
6656.00   5.19291019   0.01005529
6658.00   5.15791035   0.01043371
6660.00   5.08316278   0.01113439
6662.00   5.00639915   0.01150392
6664.00   4.90766144   0.01167319
6666.00   4.81953382   0.01166046
6668.00   4.76960707   0.01142915
6670.00   4.74350119   0.01098480
6672.00   4.69733715   0.01047439
6674.00   4.64735556   0.00955254
6676.00   4.59029436   0.00908736
6678.00   4.51924992   0.00906020
6680.00   4.45452452   0.00909105
6682.00   4.40913820   0.00907646
6684.00   4.37036228   0.00907548
6686.00   4.30547285   0.00897695
6688.00   4.20751905   0.00844499
6690.00   4.14667273   0.00885137
6692.00   4.10643911   0.01028349
6694.00   4.07403612   0.01104126
6696.00   4.05758047   0.01096884
6698.00   4.04177904   0.01051488
6700.00   3.99100304   0.01005391
6702.00   3.90782285   0.00920342
6704.00   3.85220408   0.00897755
6706.00   3.80702686   0.00937312
6708.00   3.76727271   0.00955056
6710.00   3.73745394   0.00951747
6712.00   3.70874763   0.00941785
6714.00   3.67092490   0.00931458
6716.00   3.62835145   0.00916687
6718.00   3.58325624   0.00907913
6720.00   3.52625322   0.00900467
6722.00   3.48458338   0.00898610
6724.00   3.46052194   0.00907705
6726.00   3.43717384   0.00913050
6728.00   3.40452719   0.00898689
6730.00   3.36788034   0.00872629
6732.00   3.33104753   0.00890018
6734.00   3.28650427   0.00953223
6736.00   3.25468087   0.00984793
6738.00   3.23672295   0.01013700
6740.00   3.21599007   0.01019359
6742.00   3.18745637   0.00990268
6744.00   3.15450525   0.00935032
6746.00   3.11588454   0.00873664
6748.00   3.06156659   0.00759086
6750.00   3.03049088   0.00719994
6752.00   3.01575565   0.00759166
6754.00   3.00382423   0.00783506
6756.00   2.99524927   0.00781060
6758.00   2.98827982   0.00771369
6760.00   2.97613335   0.00765196
6762.00   2.96272755   0.00752876
6764.00   2.94199657   0.00761710
6766.00   2.91146922   0.00800356
6768.00   2.88426733   0.00815073
6770.00   2.85646987   0.00805713
6772.00   2.83420205   0.00784130
6774.00   2.82685947   0.00753764
6776.00   2.83214116   0.00706391
6778.00   2.83098555   0.00690030
6780.00   2.83292556   0.00700099
6782.00   2.82773256   0.00706587
6784.00   2.81116605   0.00706413
6786.00   2.79788709   0.00719847
6788.00   2.79832006   0.00766935
6790.00   2.80681252   0.00831556
6792.00   2.80923319   0.00845627
6794.00   2.81702781   0.00821409
6796.00   2.80868983   0.00805438
6798.00   2.77806997   0.00771474
6800.00   2.75597763   0.00756387
6802.00   2.75398445   0.00782234
6804.00   2.76260519   0.00826455
6806.00   2.77180409   0.00847668
6808.00   2.79409957   0.00871964
6810.00   2.79661274   0.00863188
6812.00   2.78266311   0.00817356
6814.00   2.77086759   0.00772508
6816.00   2.76379299   0.00723817
6818.00   2.75766945   0.00682595
6820.00   2.75058627   0.00688434
6822.00   2.74335051   0.00734471
6824.00   2.73579717   0.00773266
6826.00   2.72556233   0.00831661
6828.00   2.71990490   0.00868719
6830.00   2.72190142   0.00895638
6832.00   2.72354293   0.00901964
6834.00   2.71530366   0.00862948
6836.00   2.69931722   0.00772617
6838.00   2.69792557   0.00748724
6840.00   2.70791078   0.00771448
6842.00   2.71609330   0.00793541
6844.00   2.72992945   0.00841661
6846.00   2.73704600   0.00868879
6848.00   2.72836637   0.00837999
6850.00   2.70888281   0.00766831
6852.00   2.68882442   0.00747149
6854.00   2.66363311   0.00764731
6856.00   2.63654470   0.00769121
6858.00   2.59943676   0.00771291
6860.00   2.57164884   0.00776794
6862.00   2.55400133   0.00773093
6864.00   2.54910636   0.00778064
6866.00   2.58269286   0.00858359
6868.00   2.67763233   0.01035994
6870.00   2.71082044   0.01072476
6872.00   2.72340059   0.01011660
6874.00   2.70380116   0.00965349
6876.00   2.62931943   0.00956086
6878.00   2.54106736   0.00953374
6880.00   2.51080012   0.00932461
6882.00   2.51410747   0.00904945
6884.00   2.52511430   0.00857720
6886.00   2.56822228   0.00757965
6888.00   2.59451723   0.00701503
6890.00   2.60441804   0.00710351
6892.00   2.60658622   0.00739071
6894.00   2.60482764   0.00752580
6896.00   2.59689260   0.00768023
6898.00   2.58819342   0.00773823
6900.00   2.57480717   0.00761492
6902.00   2.56347561   0.00770735
6904.00   2.55308580   0.00808111
6906.00   2.54333782   0.00837189
6908.00   2.53401518   0.00839390
6910.00   2.52526212   0.00825989
6912.00   2.51873422   0.00807392
6914.00   2.50951481   0.00766491
6916.00   2.51197386   0.00744473
6918.00   2.53063917   0.00736005
6920.00   2.54347515   0.00729574
6922.00   2.54187274   0.00712911
6924.00   2.53353953   0.00700582
6926.00   2.52949905   0.00737409
6928.00   2.53257632   0.00833245
6930.00   2.51611543   0.00864120
6932.00   2.48112607   0.00874238
6934.00   2.44764400   0.00857260
6936.00   2.40899324   0.00783070
6938.00   2.37813020   0.00694611
6940.00   2.38588715   0.00704425
6942.00   2.43192887   0.00795719
6944.00   2.44939876   0.00816711
6946.00   2.46185255   0.00819396
6948.00   2.46191549   0.00799852
6950.00   2.44397330   0.00731142
6952.00   2.42182279   0.00662746
6954.00   2.40890121   0.00668800
6956.00   2.39945626   0.00726155
6958.00   2.38884997   0.00742914
6960.00   2.36869597   0.00753965
6962.00   2.37048078   0.00748989
6964.00   2.39377713   0.00717215
6966.00   2.42522645   0.00687750
6968.00   2.46052861   0.00681847
6970.00   2.50168276   0.00688662
6972.00   2.53227663   0.00689352
6974.00   2.56214738   0.00677440
6976.00   2.57779837   0.00696356
6978.00   2.57826304   0.00741074
6980.00   2.57562470   0.00787709
6982.00   2.57325888   0.00842690
6984.00   2.56866717   0.00892528
6986.00   2.56161070   0.00885771
6988.00   2.54921865   0.00819605
6990.00   2.54294252   0.00778451
6992.00   2.53766322   0.00727176
6994.00   2.53811908   0.00692540
6996.00   2.54920101   0.00684042
6998.00   2.56191349   0.00690662
7000.00   2.56204772   0.00698652
7002.00   2.55551887   0.00714134
7004.00   2.54188609   0.00732669
7006.00   2.51069784   0.00769309
7008.00   2.49397421   0.00781215
7010.00   2.48993134   0.00762910
7012.00   2.49560428   0.00737093
7014.00   2.51433063   0.00722830
7016.00   2.54786587   0.00710781
7018.00   2.55806541   0.00711353
7020.00   2.54584002   0.00730336
7022.00   2.54863000   0.00738259
7024.00   2.56307244   0.00729607
7026.00   2.57995081   0.00732272
7028.00   2.60078597   0.00769783
7030.00   2.62374544   0.00824053
7032.00   2.61024714   0.00834511
7034.00   2.54859924   0.00814561
7036.00   2.52291846   0.00796186
7038.00   2.51422763   0.00761911
7040.00   2.51332450   0.00733268
7042.00   2.52251005   0.00718770
7044.00   2.53702760   0.00712661
7046.00   2.53564668   0.00710214
7048.00   2.52034211   0.00716645
7050.00   2.51475072   0.00718960
7052.00   2.50975490   0.00724710
7054.00   2.51097369   0.00723546
7056.00   2.52229071   0.00710918
7058.00   2.53649974   0.00694787
7060.00   2.54363346   0.00684966
7062.00   2.55045271   0.00670702
7064.00   2.54198217   0.00690710
7066.00   2.51455808   0.00756915
7068.00   2.49365830   0.00787630
7070.00   2.47746992   0.00789943
7072.00   2.46427131   0.00774585
7074.00   2.45475888   0.00736756
7076.00   2.44884729   0.00667171
7078.00   2.44364905   0.00653589
7080.00   2.43464375   0.00691318
7082.00   2.43928814   0.00710574
7084.00   2.46161747   0.00725910
7086.00   2.48333502   0.00735997
7088.00   2.49404860   0.00738085
7090.00   2.49973583   0.00734035
7092.00   2.50726795   0.00728122
7094.00   2.51419258   0.00712512
7096.00   2.52059007   0.00707839
7098.00   2.52990174   0.00712904
7100.00   2.53282928   0.00716393
7102.00   2.52444673   0.00714401
7104.00   2.51017833   0.00710609
7106.00   2.50145793   0.00709774
7108.00   2.49803162   0.00711650
7110.00   2.48377681   0.00710117
7112.00   2.45825887   0.00705872
7114.00   2.43675542   0.00702190
7116.00   2.41696405   0.00696042
7118.00   2.40333295   0.00693189
7120.00   2.40866637   0.00706252
7122.00   2.43486929   0.00737183
7124.00   2.44045997   0.00740783
7126.00   2.43490481   0.00726129
7128.00   2.42945218   0.00710144
7130.00   2.41914845   0.00671449
7132.00   2.41236019   0.00652266
7134.00   2.42122602   0.00708016
7136.00   2.44293857   0.00811130
7138.00   2.44100928   0.00848606
7140.00   2.42358398   0.00873156
7142.00   2.40356898   0.00856652
7144.00   2.36937809   0.00755683
7146.00   2.34345913   0.00675324
7148.00   2.34123802   0.00717771
7150.00   2.35327983   0.00818627
7152.00   2.35697627   0.00840383
7154.00   2.36385512   0.00832302
7156.00   2.36217570   0.00807654
7158.00   2.35022831   0.00733159
7160.00   2.34121108   0.00677890
7162.00   2.33846712   0.00679161
7164.00   2.33940625   0.00706784
7166.00   2.34438562   0.00713955
7168.00   2.35726047   0.00712609
7170.00   2.36207628   0.00726708
7172.00   2.36158252   0.00758190
7174.00   2.36181021   0.00778372
7176.00   2.35929489   0.00785212
7178.00   2.36062455   0.00784714
7180.00   2.37877965   0.00778771
7182.00   2.41214108   0.00761912
7184.00   2.43854380   0.00760659
7186.00   2.46701288   0.00771286
7188.00   2.49154472   0.00779617
7190.00   2.51605511   0.00792984
7192.00   2.53326845   0.00798512
7194.00   2.53424311   0.00775778
7196.00   2.52174473   0.00726155
7198.00   2.51504803   0.00734716
7200.00   2.50997281   0.00788248
7202.00   2.49925375   0.00833596
7204.00   2.48182678   0.00902004
7206.00   2.46394658   0.00939916
7208.00   2.44779038   0.00914274
7210.00   2.43235207   0.00845335
7212.00   2.42323971   0.00801643
7214.00   2.42133260   0.00747280
7216.00   2.41703391   0.00722299
7218.00   2.40977931   0.00731115
7220.00   2.40820646   0.00739655
7222.00   2.41693020   0.00730903
7224.00   2.43057823   0.00724419
7226.00   2.43781352   0.00758897
7228.00   2.43842220   0.00817476
7230.00   2.45074582   0.00889986
7232.00   2.47760630   0.01021754
7234.00   2.49477506   0.01074197
7236.00   2.50597095   0.01009962
7238.00   2.50432539   0.00917023
7240.00   2.46840334   0.00939560
7242.00   2.38978577   0.01033809
7244.00   2.37248755   0.01092562
7246.00   2.39664888   0.01181826
7248.00   2.42175436   0.01205427
7250.00   2.46305299   0.01135608
7252.00   2.49662495   0.01061849
7254.00   2.49434876   0.01093379
7256.00   2.46671224   0.01191325
7258.00   2.45345640   0.01148051
7260.00   2.45269060   0.00921200
7262.00   2.42777920   0.00815894
7264.00   2.36675286   0.00854119
7266.00   2.31804585   0.00898888
7268.00   2.30376172   0.00887384
7270.00   2.31165934   0.00857862
7272.00   2.34995413   0.00851720
7274.00   2.44313693   0.00857275
7276.00   2.49941278   0.00865441
7278.00   2.55375838   0.00895077
7280.00   2.58036494   0.00901230
7282.00   2.56078434   0.00856410
7284.00   2.51829505   0.00790406
7286.00   2.50619435   0.00783056
7288.00   2.51484680   0.00796241
7290.00   2.50029826   0.00867944
7292.00   2.47095847   0.01020001
7294.00   2.44124103   0.01112146
7296.00   2.40023589   0.01163520
7298.00   2.36876273   0.01172580
7300.00   2.38554955   0.01094285
7302.00   2.44631815   0.00886046
7304.00   2.47800636   0.00789405
7306.00   2.49099040   0.00767123
7308.00   2.52483439   0.00764215
7310.00   2.59499359   0.00799795
7312.00   2.65618277   0.00844787
7314.00   2.66929555   0.00875074
7316.00   2.65136242   0.00903782
7318.00   2.62572455   0.00916596
7320.00   2.56051683   0.00931382
7322.00   2.53275776   0.00908747
7324.00   2.53776097   0.00819423
7326.00   2.54754829   0.00742728
7328.00   2.55056167   0.00737061
7330.00   2.55327415   0.00774564
7332.00   2.55199742   0.00824341
7334.00   2.54136968   0.00929921
7336.00   2.54378963   0.00963649
7338.00   2.55738330   0.00949711
7340.00   2.57021952   0.00934635
7342.00   2.58357525   0.00931586
7344.00   2.59360647   0.00928319
7346.00   2.58242273   0.00915541
7348.00   2.54826117   0.00902790
7350.00   2.52682590   0.00863385
7352.00   2.51051235   0.00762703
7354.00   2.48977017   0.00709544
7356.00   2.46081471   0.00736387
7358.00   2.43129897   0.00794554
7360.00   2.41016626   0.00844006
7362.00   2.39183855   0.00911430
7364.00   2.38766384   0.00925287
7366.00   2.39680147   0.00903216
7368.00   2.41071272   0.00868454
7370.00   2.43532825   0.00792345
7372.00   2.45954919   0.00723282
7374.00   2.47516990   0.00727327
7376.00   2.48719478   0.00781194
7378.00   2.47812557   0.00805842
7380.00   2.43617845   0.00843691
7382.00   2.41815519   0.00845293
7384.00   2.41670775   0.00783865
7386.00   2.42047286   0.00750673
7388.00   2.42721391   0.00818422
7390.00   2.43750906   0.00926199
7392.00   2.43802929   0.00945521
7394.00   2.43455195   0.00913028
7396.00   2.42369032   0.00878446
7398.00   2.40052247   0.00805145
7400.00   2.38105464   0.00743918
7402.00   2.36940455   0.00717238
7404.00   2.36172771   0.00709514
7406.00   2.35604930   0.00700770
7408.00   2.35639191   0.00702624
7410.00   2.34908628   0.00700254
7412.00   2.33346033   0.00697362
7414.00   2.32360339   0.00696386
7416.00   2.31758308   0.00693425
7418.00   2.31865716   0.00696067
7420.00   2.33588457   0.00718244
7422.00   2.37002826   0.00759406
7424.00   2.39177656   0.00775898
7426.00   2.41269588   0.00785658
7428.00   2.42613053   0.00779948
7430.00   2.43294120   0.00747591
7432.00   2.43305469   0.00714203
7434.00   2.42354298   0.00705525
7436.00   2.40446973   0.00711368
7438.00   2.39909482   0.00715216
7440.00   2.40470815   0.00726520
7442.00   2.40475106   0.00732531
7444.00   2.39862537   0.00734172
7446.00   2.39670110   0.00736159
7448.00   2.40438533   0.00736459
7450.00   2.41818213   0.00737708
7452.00   2.43265843   0.00763785
7454.00   2.46023345   0.00842944
7456.00   2.46567369   0.00843646
7458.00   2.45377088   0.00766166
7460.00   2.43886495   0.00709018
7462.00   2.42162228   0.00709040
7464.00   2.40314412   0.00737268
7466.00   2.39349103   0.00771349
7468.00   2.39051247   0.00841350
7470.00   2.38685822   0.00846078
7472.00   2.38753343   0.00792234
7474.00   2.38452768   0.00752462
7476.00   2.37487745   0.00732125
7478.00   2.36481762   0.00722811
7480.00   2.36141515   0.00728097
7482.00   2.36060572   0.00753120
7484.00   2.36935902   0.00753366
7486.00   2.39899015   0.00733089
7488.00   2.40785837   0.00723174
7490.00   2.39329672   0.00717855
7492.00   2.37361455   0.00722008
7494.00   2.36189485   0.00745928
7496.00   2.35212398   0.00785316
7498.00   2.33845735   0.00797427
7500.00   2.31670642   0.00795936
7502.00   2.30675435   0.00786639
7504.00   2.31047535   0.00755799
7506.00   2.31229186   0.00733317
7508.00   2.30356145   0.00741799
7510.00   2.29015255   0.00765362
7512.00   2.28368139   0.00761922
7514.00   2.28368807   0.00722596
7516.00   2.27763987   0.00727737
7518.00   2.26222682   0.00778026
7520.00   2.25638008   0.00805590
7522.00   2.26999617   0.00787297
7524.00   2.29019356   0.00753445
7526.00   2.29134321   0.00760043
7528.00   2.27279902   0.00804543
7530.00   2.27996159   0.00803530
7532.00   2.30955124   0.00750454
7534.00   2.33049321   0.00738244
7536.00   2.34331369   0.00801425
7538.00   2.34870672   0.00863170
7540.00   2.34111214   0.00842167
7542.00   2.31971097   0.00748998
7544.00   2.30581570   0.00731965
7546.00   2.28905249   0.00764105
7548.00   2.28024411   0.00790605
7550.00   2.28411174   0.00833986
7552.00   2.28652906   0.00858205
7554.00   2.27533102   0.00819264
7556.00   2.25575995   0.00724933
7558.00   2.24154592   0.00728637
7560.00   2.22212839   0.00823754
7562.00   2.21657610   0.00862169
7564.00   2.22829461   0.00883980
7566.00   2.23805976   0.00880229
7568.00   2.23516202   0.00829398
7570.00   2.22705197   0.00742933
7572.00   2.22876120   0.00715146
7574.00   2.23668957   0.00741044
7576.00   2.24469185   0.00739783
7578.00   2.25413728   0.00715450
7580.00   2.26616311   0.00721247
7582.00   2.28586459   0.00783728
7584.00   2.30525875   0.00858869
7586.00   2.30197763   0.00880214
7588.00   2.26200938   0.00836279
7590.00   2.28411198   0.00906125
7592.00   2.37941265   0.01024472
7594.00   2.42663121   0.01170708
7596.00   2.41767550   0.01362466
7598.00   2.37666869   0.01537219
7600.00   2.31463885   0.01649546
7602.00   2.22133827   0.01751218
7604.00   2.13464236   0.01721137
7606.00   2.02364421   0.01511397
7608.00   1.94600952   0.01359680
7610.00   1.88004994   0.01258494
7612.00   1.85777736   0.01183141
7614.00   1.92363739   0.01136165
7616.00   2.06245542   0.01125962
7618.00   2.12800932   0.01074319
7620.00   2.15929723   0.00938623
7622.00   2.19096398   0.00930359
7624.00   2.21950173   0.01066511
7626.00   2.23431659   0.01177219
7628.00   2.22621560   0.01220586
7630.00   2.20296597   0.01232825
7632.00   2.19452715   0.01198909
7634.00   2.18727946   0.01073777
7636.00   2.19065428   0.01008075
7638.00   2.21590257   0.00971230
7640.00   2.22445846   0.00939711
7642.00   2.20114684   0.00900146
7644.00   2.16535497   0.00871183
7646.00   2.14709067   0.00892319
7648.00   2.12825990   0.00968933
7650.00   2.13706207   0.00998851
7652.00   2.18808079   0.01026846
7654.00   2.21314931   0.01020101
7656.00   2.20035410   0.00957417
7658.00   2.17880011   0.00876114
7660.00   2.17593861   0.00832996
7662.00   2.17806530   0.00804470
7664.00   2.19858694   0.00814901
7666.00   2.25449014   0.00848221
7668.00   2.27989674   0.00924319
7670.00   2.27238679   0.01071081
7672.00   2.25882626   0.01184425
7674.00   2.25832987   0.01206739
7676.00   2.26220131   0.01175655
7678.00   2.25268197   0.01157436
7680.00   2.23271537   0.01130572
7682.00   2.21237111   0.01089011
7684.00   2.18219376   0.01026421
7686.00   2.16059613   0.00954853
7688.00   2.15746617   0.00867149
7690.00   2.16581869   0.00767468
7692.00   2.17378545   0.00738635
7694.00   2.19395852   0.00787431
7696.00   2.19824243   0.00816842
7698.00   2.18641686   0.00865856
7700.00   2.18197870   0.00901701
7702.00   2.19668055   0.00915132
7704.00   2.21429801   0.00921100
7706.00   2.20465159   0.00940486
7708.00   2.17092419   0.00965536
7710.00   2.15160894   0.00992207
7712.00   2.13745642   0.01052500
7714.00   2.12075090   0.01055032
7716.00   2.10078168   0.00966300
7718.00   2.07963705   0.00849135
7720.00   2.05973077   0.00804665
7722.00   2.04169917   0.00802840
7724.00   2.01345205   0.00818371
7726.00   1.97058463   0.00889586
7728.00   1.93885183   0.00916749
7730.00   1.91352952   0.00905948
7732.00   1.89705491   0.00882956
7734.00   1.89332044   0.00858974
7736.00   1.90064335   0.00826532
7738.00   1.91222310   0.00817874
7740.00   1.93045378   0.00827836
7742.00   1.95510077   0.00839672
7744.00   1.99469554   0.00862212
7746.00   2.02747798   0.00881522
7748.00   2.04226279   0.00896129
7750.00   2.04707050   0.00905526
7752.00   2.05503941   0.00888314
7754.00   2.05671525   0.00821127
7756.00   2.06809354   0.00804504
7758.00   2.09015226   0.00830970
7760.00   2.10709810   0.00843807
7762.00   2.11255097   0.00826739
7764.00   2.11515045   0.00800325
7766.00   2.12905526   0.00792242
7768.00   2.15104127   0.00785533
7770.00   2.17055678   0.00809654
7772.00   2.18808675   0.00878516
7774.00   2.21180105   0.00915854
7776.00   2.24582767   0.00901643
7778.00   2.28097105   0.00891712
7780.00   2.30851507   0.00956250
7782.00   2.33584166   0.01072446
7784.00   2.33629775   0.01113979
7786.00   2.31507254   0.01128197
7788.00   2.28288102   0.01114436
7790.00   2.23078680   0.01052798
7792.00   2.17602110   0.00983306
7794.00   2.12838459   0.00942504
7796.00   2.08207655   0.00915276
7798.00   2.06534672   0.00895166
7800.00   2.08635926   0.00879819
7802.00   2.08711171   0.00887516
7804.00   2.07490039   0.00941977
7806.00   2.06531429   0.00968431
7808.00   2.06196618   0.00928670
7810.00   2.06353140   0.00848978
7812.00   2.08082104   0.00802814
7814.00   2.12250018   0.00751790
7816.00   2.14510131   0.00743992
7818.00   2.16361570   0.00794272
7820.00   2.17217422   0.00824547
7822.00   2.16572714   0.00815949
7824.00   2.15203953   0.00795795
7826.00   2.14598131   0.00800017
7828.00   2.13846350   0.00818084
7830.00   2.14433908   0.00832867
7832.00   2.17314386   0.00861233
7834.00   2.18319511   0.00868565
7836.00   2.16873407   0.00846997
7838.00   2.14586806   0.00816204
7840.00   2.12799501   0.00794947
7842.00   2.10736489   0.00769235
7844.00   2.09853721   0.00785281
7846.00   2.11298203   0.00852245
7848.00   2.10034108   0.00887742
7850.00   2.04969430   0.00910330
7852.00   2.00441837   0.00912167
7854.00   1.99784064   0.00872393
7856.00   2.01426458   0.00793648
7858.00   2.01550150   0.00775553
7860.00   2.00965905   0.00810256
7862.00   2.01299715   0.00822140
7864.00   2.02236199   0.00817042
7866.00   2.03610969   0.00826316
7868.00   2.05961108   0.00875386
7870.00   2.08649635   0.00936215
7872.00   2.08451700   0.00932391
7874.00   2.04907131   0.00852500
7876.00   2.03716779   0.00833567
7878.00   2.02698255   0.00834328
7880.00   2.03216887   0.00861945
7882.00   2.06476116   0.00929624
7884.00   2.10591221   0.01006248
7886.00   2.11829758   0.01046243
7888.00   2.11264420   0.01090395
7890.00   2.10765147   0.01049626
7892.00   2.09147739   0.00857732
7894.00   2.08197570   0.00745538
7896.00   2.08225513   0.00795718
7898.00   2.08388829   0.00876756
7900.00   2.07889533   0.00880842
7902.00   2.07074261   0.00853911
7904.00   2.05962682   0.00827384
7906.00   2.03792262   0.00762438
7908.00   2.02917790   0.00742881
7910.00   2.03233171   0.00772247
7912.00   2.04136539   0.00816438
7914.00   2.05571985   0.00867755
7916.00   2.07618260   0.00929518
7918.00   2.08111024   0.00920490
7920.00   2.06830549   0.00808789
7922.00   2.06922722   0.00783923
7924.00   2.08387828   0.00833179
7926.00   2.09300780   0.00883234
7928.00   2.08977318   0.00918151
7930.00   2.07851982   0.00946793
7932.00   2.05852985   0.00941245
7934.00   2.01525593   0.00902321
7936.00   2.00069904   0.00861379
7938.00   2.00414753   0.00787178
7940.00   2.01237488   0.00731623
7942.00   2.02823710   0.00716355
7944.00   2.04554796   0.00721561
7946.00   2.04526734   0.00719536
7948.00   2.02880526   0.00719314
7950.00   2.02514958   0.00730183
7952.00   2.02062678   0.00746749
7954.00   2.02905321   0.00774734
7956.00   2.06358528   0.00829963
7958.00   2.09515905   0.00874193
7960.00   2.08680511   0.00864428
7962.00   2.04826283   0.00810694
7964.00   2.03197002   0.00786516
7966.00   2.02340364   0.00770737
7968.00   2.01450634   0.00757230
7970.00   2.01000714   0.00745502
7972.00   2.00169945   0.00739662
7974.00   1.98016882   0.00745142
7976.00   1.94968677   0.00759485
7978.00   1.93820941   0.00760165
7980.00   1.94371128   0.00749625
7982.00   1.94132066   0.00745384
7984.00   1.93493474   0.00723860
7986.00   1.92987382   0.00735665
7988.00   1.92895675   0.00815401
7990.00   1.92975736   0.00917142
7992.00   1.92643809   0.00953206
7994.00   1.92075861   0.00954122
7996.00   1.91408312   0.00950654
7998.00   1.90314651   0.00922339
8000.00   1.89594066   0.00899975
8002.00   1.89397800   0.00892772
8004.00   1.89539373   0.00889163
8006.00   1.89884865   0.00875230
8008.00   1.90424216   0.00857728
8010.00   1.91460955   0.00828924
8012.00   1.93198621   0.00761092
8014.00   1.94752669   0.00738539
8016.00   1.96422029   0.00791134
8018.00   1.97696161   0.00847894
8020.00   1.97680795   0.00844874
8022.00   1.96473265   0.00804532
8024.00   1.96544993   0.00787697
8026.00   1.97816217   0.00763895
8028.00   1.98010993   0.00767454
8030.00   1.97160912   0.00813539
8032.00   1.96059084   0.00850033
8034.00   1.94911897   0.00843666
8036.00   1.93586481   0.00811808
8038.00   1.93948984   0.00793032
8040.00   1.96264064   0.00771787
8042.00   1.97553825   0.00755322
8044.00   1.98761940   0.00736726
8046.00   1.99305737   0.00730243
8048.00   1.98699236   0.00743022
8050.00   1.97404575   0.00768858
8052.00   1.96742415   0.00798131
8054.00   1.95694327   0.00838847
8056.00   1.96162891   0.00871098
8058.00   1.98666728   0.00910573
8060.00   2.00162387   0.00931045
8062.00   2.00485206   0.00917434
8064.00   1.99662447   0.00895625
8066.00   1.96426022   0.00916731
8068.00   1.89503050   0.00981146
8070.00   1.87551785   0.00979613
8072.00   1.88944721   0.00916921
8074.00   1.90490663   0.00878764
8076.00   1.92806363   0.00874903
8078.00   1.95039642   0.00879312
8080.00   1.95694935   0.00871401
8082.00   1.95214915   0.00859093
8084.00   1.95493948   0.00851713
8086.00   1.96862197   0.00845377
8088.00   1.96342337   0.00842939
8090.00   1.93218398   0.00849769
8092.00   1.90365124   0.00851995
8094.00   1.89659035   0.00838345
8096.00   1.90137756   0.00813914
8098.00   1.90976381   0.00797086
8100.00   1.93186939   0.00767298
8102.00   1.94385409   0.00771634
8104.00   1.95439446   0.00823962
8106.00   1.95605564   0.00855008
8108.00   1.94322908   0.00835584
8110.00   1.92129838   0.00791053
8112.00   1.90489089   0.00774893
8114.00   1.88400757   0.00776327
8116.00   1.87524283   0.00766506
8118.00   1.87749350   0.00750637
8120.00   1.87993217   0.00737832
8122.00   1.88044739   0.00719266
8124.00   1.88190472   0.00711483
8126.00   1.88766468   0.00755283
8128.00   1.90134835   0.00849993
8130.00   1.89840508   0.00885013
8132.00   1.87665272   0.00892064
8134.00   1.86546111   0.00893610
8136.00   1.86542177   0.00887725
8138.00   1.87088561   0.00875173
8140.00   1.88020647   0.00858218
8142.00   1.89611113   0.00833989
8144.00   1.90094244   0.00814950
8146.00   1.90121925   0.00783691
8148.00   1.89466846   0.00782440
8150.00   1.87744701   0.00812587
8152.00   1.85968161   0.00852552
8154.00   1.84702456   0.00900954
8156.00   1.83649957   0.00956935
8158.00   1.83386445   0.00950271
8160.00   1.84186018   0.00838191
8162.00   1.84491110   0.00838304
8164.00   1.84595764   0.00918359
8166.00   1.84740341   0.01014935
8168.00   1.85134304   0.01138596
8170.00   1.85553777   0.01258077
8172.00   1.85257065   0.01251792
8174.00   1.83543229   0.01117937
8176.00   1.83969593   0.01031372
8178.00   1.86514747   0.00909769
8180.00   1.88241053   0.00829014
8182.00   1.88379192   0.00824387
8184.00   1.88086426   0.00865531
8186.00   1.88711214   0.00915652
8188.00   1.89538682   0.01003654
8190.00   1.91436601   0.01034936
8192.00   1.97021544   0.01019527
8194.00   1.97666156   0.01027676
8196.00   1.90711224   0.01070720
8198.00   1.83197749   0.01110669
8200.00   1.82329273   0.01115672
8202.00   1.85408592   0.01098782
8204.00   1.87567890   0.01081113
8206.00   1.92274880   0.01050193
8208.00   1.93659639   0.01021366
8210.00   1.90894723   0.00995509
8212.00   1.88383734   0.00964015
8214.00   1.88992310   0.00908629
8216.00   1.91217971   0.00834723
8218.00   1.92733252   0.00845707
8220.00   1.94795680   0.00957696
8222.00   1.95929301   0.00992985
8224.00   1.97821033   0.00989102
8226.00   1.97003758   0.00976648
8228.00   1.90158224   0.00960383
8230.00   1.80875206   0.00939037
8232.00   1.80196095   0.00933374
8234.00   1.87450325   0.00938149
8236.00   1.90004742   0.00945293
8238.00   1.91382694   0.00956970
8240.00   1.92327070   0.00973401
8242.00   1.92985439   0.00994530
8244.00   1.93140161   0.01019774
8246.00   1.92613029   0.01051735
8248.00   1.91584265   0.01103238
8250.00   1.89501095   0.01100105
8252.00   1.84723794   0.01045693
8254.00   1.82679617   0.00997749
8256.00   1.83538091   0.00947457
8258.00   1.86019576   0.00904558
8260.00   1.89938033   0.00896025
8262.00   1.96171546   0.00920452
8264.00   1.97169924   0.00892767
8266.00   1.93879628   0.00800178
8268.00   1.91155303   0.00758201
8270.00   1.87490368   0.00764519
8272.00   1.84484231   0.00790759
8274.00   1.83737504   0.00830342
8276.00   1.84390640   0.00883624
8278.00   1.82994604   0.00897657
8280.00   1.79869270   0.00888511
8282.00   1.77924609   0.00869945
8284.00   1.76676059   0.00816714
8286.00   1.75457323   0.00781763
8288.00   1.74309993   0.00792763
8290.00   1.73059428   0.00827847
8292.00   1.70493805   0.00855721
8294.00   1.65974867   0.00902910
8296.00   1.63555050   0.00912031
8298.00   1.63133466   0.00870452
8300.00   1.61551952   0.00865213
8302.00   1.57264292   0.00942548
8304.00   1.52887559   0.01016999
8306.00   1.52731276   0.00969893
8308.00   1.56354666   0.00781500
8310.00   1.56991303   0.00737624
8312.00   1.57669675   0.00817688
8314.00   1.55681789   0.00854278
8316.00   1.49687147   0.00855445
8318.00   1.43057907   0.00843234
8320.00   1.39228261   0.00824603
8322.00   1.36828208   0.00794980
8324.00   1.34036899   0.00759324
8326.00   1.32001054   0.00693644
8328.00   1.28999102   0.00662279
8330.00   1.24553525   0.00668724
8332.00   1.20563924   0.00686473
8334.00   1.18456888   0.00705399
8336.00   1.17450964   0.00730023
8338.00   1.15042198   0.00734030
8340.00   1.11383379   0.00715462
8342.00   1.08860040   0.00712400
8344.00   1.07334840   0.00725237
8346.00   1.05554152   0.00727317
8348.00   1.02836728   0.00705202
8350.00   0.99857259   0.00670395
8352.00   0.98152971   0.00650630
8354.00   0.98014963   0.00638741
8356.00   0.96192127   0.00625644
8358.00   0.93144268   0.00602413
8360.00   0.90340948   0.00602595
8362.00   0.88252342   0.00653488
8364.00   0.86090976   0.00702115
8366.00   0.82684159   0.00671402
8368.00   0.77979356   0.00556947
8370.00   0.74768716   0.00506093
8372.00   0.72144473   0.00484994
8374.00   0.70193714   0.00482654
8376.00   0.69427806   0.00516849
8378.00   0.68722326   0.00549476
8380.00   0.66835028   0.00541487
8382.00   0.64226860   0.00504472
8384.00   0.61968058   0.00503195
8386.00   0.59262645   0.00529880
8388.00   0.57507724   0.00542015
8390.00   0.56879437   0.00545411
8392.00   0.56333810   0.00546062
8394.00   0.55360389   0.00546557
8396.00   0.54228151   0.00545479
8398.00   0.52513856   0.00540321
8400.00   0.49663842   0.00535514
8402.00   0.48001218   0.00518756
8404.00   0.46908271   0.00480873
8406.00   0.46428663   0.00450017
8408.00   0.46807355   0.00440323
8410.00   0.47727084   0.00442785
8412.00   0.48134390   0.00444978
8414.00   0.48520282   0.00445561
8416.00   0.48519298   0.00466757
8418.00   0.47805408   0.00517189
8420.00   0.47619042   0.00545372
8422.00   0.48280796   0.00542910
8424.00   0.49249613   0.00530383
8426.00   0.49875885   0.00533152
8428.00   0.50411648   0.00544480
8430.00   0.50926483   0.00544721
8432.00   0.51180339   0.00542044
8434.00   0.51830184   0.00530511
8436.00   0.52767169   0.00501942
8438.00   0.54098475   0.00472510
8440.00   0.56073022   0.00462184
8442.00   0.58662480   0.00464119
8444.00   0.60952169   0.00469743
8446.00   0.63551611   0.00487569
8448.00   0.65490663   0.00498526
8450.00   0.66853315   0.00500959
8452.00   0.67870671   0.00508245
8454.00   0.68453407   0.00527071
8456.00   0.68673944   0.00552725
8458.00   0.69904792   0.00583557
8460.00   0.71275502   0.00620901
8462.00   0.74074721   0.00657874
8464.00   0.79050386   0.00707209
8466.00   0.83312517   0.00738624
8468.00   0.85732472   0.00746998
8470.00   0.87325841   0.00738088
8472.00   0.89466858   0.00706003
8474.00   0.91162437   0.00621493
8476.00   0.94240856   0.00586980
8478.00   0.99213201   0.00588096
8480.00   1.03049409   0.00592605
8482.00   1.05116129   0.00592098
8484.00   1.06495035   0.00601062
8486.00   1.08188605   0.00639032
8488.00   1.09279990   0.00706573
8490.00   1.12536669   0.00732997
8492.00   1.17735970   0.00742563
8494.00   1.22911215   0.00739217
8496.00   1.28510356   0.00709682
8498.00   1.33960462   0.00680514
8500.00   1.38549662   0.00682085
8502.00   1.42629266   0.00701405
8504.00   1.45931602   0.00733317
8506.00   1.48048949   0.00795097
8508.00   1.50557280   0.00828976
8510.00   1.53158689   0.00853266
8512.00   1.55859923   0.00856317
8514.00   1.58988583   0.00816620
8516.00   1.62322176   0.00742852
8518.00   1.63899207   0.00733935
8520.00   1.63873661   0.00783917
8522.00   1.64026320   0.00803855
8524.00   1.63661540   0.00827390
8526.00   1.63380218   0.00829275
8528.00   1.63503492   0.00789075
8530.00   1.63697243   0.00726228
8532.00   1.63280904   0.00706349
8534.00   1.62460852   0.00719756
8536.00   1.61431432   0.00719312
8538.00   1.60020649   0.00712548
8540.00   1.58552122   0.00718727
8542.00   1.57252181   0.00742718
8544.00   1.55705595   0.00774050
8546.00   1.53275025   0.00804476
8548.00   1.50192928   0.00847452
8550.00   1.46623600   0.00845261
8552.00   1.41476643   0.00799772
8554.00   1.37892795   0.00759175
8556.00   1.35968184   0.00710612
8558.00   1.34809053   0.00671392
8560.00   1.33842111   0.00669391
8562.00   1.33357322   0.00695608
8564.00   1.33063293   0.00724632
8566.00   1.33313179   0.00780899
8568.00   1.33292580   0.00807454
8570.00   1.32922041   0.00817629
8572.00   1.32779551   0.00811283
8574.00   1.33236670   0.00779860
8576.00   1.34074497   0.00726222
8578.00   1.34768856   0.00695715
8580.00   1.35393250   0.00673477
8582.00   1.36318243   0.00661403
8584.00   1.37153006   0.00656819
8586.00   1.38679469   0.00667715
8588.00   1.41233993   0.00698192
8590.00   1.44481230   0.00740698
8592.00   1.47890902   0.00784049
8594.00   1.52116656   0.00859325
8596.00   1.55382383   0.00857298
8598.00   1.57279611   0.00763768
8600.00   1.60519099   0.00709858
8602.00   1.65549052   0.00724690
8604.00   1.71561599   0.00772226
8606.00   1.77869511   0.00830276
8608.00   1.84892809   0.00915417
8610.00   1.91857684   0.00957311
8612.00   1.99237525   0.00969597
8614.00   2.06341267   0.00991578
8616.00   2.13080001   0.01026186
8618.00   2.19807243   0.01056712
8620.00   2.26877594   0.01074080
8622.00   2.34191895   0.01085242
8624.00   2.40944815   0.01066396
8626.00   2.47500253   0.00992873
8628.00   2.53554916   0.00962116
8630.00   2.59259629   0.00972670
8632.00   2.64386797   0.00988296
8634.00   2.68592834   0.00990724
8636.00   2.72114420   0.00990589
8638.00   2.76397777   0.00999282
8640.00   2.81296468   0.01017783
8642.00   2.85594368   0.01028768
8644.00   2.89204264   0.01028040
8646.00   2.93241811   0.01039814
8648.00   2.98513222   0.01044021
8650.00   3.04050946   0.01073224
8652.00   3.07549834   0.01239420
8654.00   3.10194230   0.01570337
8656.00   3.10754466   0.01628803
8658.00   3.07506490   0.01495773
8660.00   3.06471682   0.01392409
8662.00   3.08854032   0.01354468
8664.00   3.12397909   0.01334721
8666.00   3.14600873   0.01307032
8668.00   3.16003609   0.01288170
8670.00   3.19473529   0.01244711
8672.00   3.26118088   0.01162243
8674.00   3.29807734   0.01108648
8676.00   3.30052495   0.01091057
8678.00   3.29392695   0.01087094
8680.00   3.29918933   0.01077180
8682.00   3.30825138   0.01068063
8684.00   3.29902911   0.01091702
8686.00   3.26579762   0.01170949
8688.00   3.25037909   0.01192252
8690.00   3.25242949   0.01143287
8692.00   3.25236034   0.01114656
8694.00   3.24091005   0.01170885
8696.00   3.22327757   0.01266145
8698.00   3.19951439   0.01299851
8700.00   3.15858078   0.01309234
8702.00   3.13726878   0.01300884
8704.00   3.13130546   0.01248665
8706.00   3.12519646   0.01215915
8708.00   3.11223793   0.01237326
8710.00   3.09961152   0.01275515
8712.00   3.10064816   0.01260968
8714.00   3.11861181   0.01205996
8716.00   3.12010527   0.01162734
8718.00   3.11430144   0.01104246
8720.00   3.10400581   0.01059901
8722.00   3.08988738   0.01037560
8724.00   3.07065630   0.01026961
8726.00   3.04397488   0.01016950
8728.00   3.00809360   0.01013535
8730.00   2.97906232   0.01010061
8732.00   2.94740582   0.00998219
8734.00   2.92641258   0.01009846
8736.00   2.92531443   0.01050329
8738.00   2.92020321   0.01096364
8740.00   2.88642263   0.01135903
8742.00   2.83256960   0.01177905
8744.00   2.79941201   0.01180903
8746.00   2.77268648   0.01145008
8748.00   2.75433183   0.01115562
8750.00   2.74527192   0.01053348
8752.00   2.74223924   0.01032029
8754.00   2.74697948   0.01121139
8756.00   2.75760818   0.01259279
8758.00   2.75225329   0.01281358
8760.00   2.73819566   0.01211965
8762.00   2.71707797   0.01186449
8764.00   2.68251395   0.01172976
8766.00   2.65053725   0.01158760
8768.00   2.62566137   0.01140468
8770.00   2.60391092   0.01120799
8772.00   2.58332038   0.01099692
8774.00   2.57052326   0.01060185
8776.00   2.54166913   0.01070692
8778.00   2.49576068   0.01150426
8780.00   2.45661807   0.01179568
8782.00   2.42351484   0.01137338
8784.00   2.39753509   0.01068744
8786.00   2.38718677   0.01028113
8788.00   2.39493465   0.00991867
8790.00   2.38456845   0.00973567
8792.00   2.36857009   0.00987760
8794.00   2.34408545   0.00980701
8796.00   2.30405807   0.00930242
8798.00   2.26506877   0.00897257
8800.00   2.24397612   0.00953030
8802.00   2.23445678   0.01065508
8804.00   2.21275568   0.01090648
8806.00   2.18753552   0.01071843
8808.00   2.15659285   0.01040470
8810.00   2.11408401   0.00964080
8812.00   2.07573485   0.00898535
8814.00   2.04804921   0.00886561
8816.00   2.02767324   0.00906979
8818.00   2.02256179   0.00924037
8820.00   2.04104829   0.00939276
8822.00   2.04572845   0.00987361
8824.00   2.04642487   0.01086867
8826.00   2.04467416   0.01147519
8828.00   2.04032373   0.01145443
8830.00   2.03381133   0.01114018
8832.00   2.02706957   0.01101798
8834.00   2.01921272   0.01088557
8836.00   2.01083994   0.01081291
8838.00   1.99850023   0.01085731
8840.00   1.99164426   0.01079499
8842.00   1.99784315   0.01054991
8844.00   2.00221682   0.01026342
8846.00   1.98271203   0.01014471
8848.00   1.94486165   0.01017146
8850.00   1.91148078   0.00997450
8852.00   1.86845279   0.00942144
8854.00   1.83664012   0.00924352
8856.00   1.81723785   0.00964328
8858.00   1.80200016   0.00999131
8860.00   1.78624654   0.00976683
8862.00   1.77288043   0.00915250
8864.00   1.75151122   0.00890632
8866.00   1.71513319   0.00879569
8868.00   1.69743609   0.00879968
8870.00   1.69331932   0.00883953
8872.00   1.69813025   0.00912207
8874.00   1.71550953   0.00982520
8876.00   1.74168372   0.01073350
8878.00   1.74350047   0.01123162
8880.00   1.72756433   0.01176840
8882.00   1.71143818   0.01171604
8884.00   1.68332744   0.01097695
8886.00   1.66189706   0.01024381
8888.00   1.65401983   0.00971060
8890.00   1.65222466   0.00925190
8892.00   1.64534533   0.00890692
8894.00   1.63483799   0.00866381
8896.00   1.63244784   0.00859245
8898.00   1.64170539   0.00881353
8900.00   1.64198232   0.00893136
8902.00   1.62519896   0.00890464
8904.00   1.60776436   0.00883410
8906.00   1.61236382   0.00878792
8908.00   1.63532054   0.00871007
8910.00   1.63976169   0.00877149
8912.00   1.63480282   0.00892951
8914.00   1.62866819   0.00913858
8916.00   1.62097931   0.00951059
8918.00   1.61032653   0.00978831
8920.00   1.59407294   0.00973409
8922.00   1.57232082   0.00944120
8924.00   1.56405687   0.00929572
8926.00   1.56646407   0.00899683
8928.00   1.56802320   0.00909749
8930.00   1.56836259   0.00984588
8932.00   1.57449448   0.01026792
8934.00   1.59266019   0.00980139
8936.00   1.61814904   0.00878929
8938.00   1.63151407   0.00852807
8940.00   1.63168037   0.00881775
8942.00   1.64565933   0.00892741
8944.00   1.67757010   0.00909071
8946.00   1.69536245   0.00923113
8948.00   1.68568921   0.00924210
8950.00   1.66421676   0.00927990
8952.00   1.65759754   0.00974110
8954.00   1.65891051   0.01067173
8956.00   1.65411937   0.01103694
8958.00   1.65136325   0.01124974
8960.00   1.63947523   0.01114184
8962.00   1.60929108   0.01047191
8964.00   1.57927239   0.00963947
8966.00   1.57676458   0.00937244
8968.00   1.59678352   0.00946703
8970.00   1.59712577   0.00955642
8972.00   1.57668209   0.00975640
8974.00   1.58036995   0.01005768
8976.00   1.61849117   0.01062203
8978.00   1.65474772   0.01104657
8980.00   1.65624845   0.01089327
8982.00   1.63584602   0.01028681
8984.00   1.64588153   0.01071056
8986.00   1.68824232   0.01207700
8988.00   1.69991291   0.01279306
8990.00   1.68931448   0.01347876
8992.00   1.66902614   0.01359474
8994.00   1.64040935   0.01256307
8996.00   1.60390329   0.01060777
8998.00   1.58018577   0.00980148
9000.00   1.57271147   0.01000247
9002.00   1.54486513   0.00978748
9004.00   1.49235499   0.00955271
9006.00   1.45547628   0.00933189
9008.00   1.44303668   0.00909066
9010.00   1.44727015   0.00888876
9012.00   1.46880949   0.00891532
9014.00   1.52216375   0.00917720
9016.00   1.54458785   0.00933444
9018.00   1.55703640   0.00938569
9020.00   1.55449402   0.00963834
9022.00   1.52951705   0.01023053
9024.00   1.49708688   0.01081405
9026.00   1.47676289   0.01099624
9028.00   1.45822144   0.01089450
9030.00   1.45472336   0.01100104
9032.00   1.47577250   0.01145259
9034.00   1.47906256   0.01133588
9036.00   1.46070147   0.01041701
9038.00   1.44209290   0.00936227
9040.00   1.43835759   0.00885419
9042.00   1.44228971   0.00865259
9044.00   1.45168853   0.00860096
9046.00   1.47014511   0.00872027
9048.00   1.48848033   0.00913291
9050.00   1.51981819   0.01012652
9052.00   1.53591633   0.01075995
9054.00   1.51681113   0.01063751
9056.00   1.47715616   0.01006959
9058.00   1.45990610   0.00963353
9060.00   1.45395708   0.00864885
9062.00   1.44462895   0.00865278
9064.00   1.43187892   0.00973135
9066.00   1.42741394   0.01039053
9068.00   1.43631828   0.01037060
9070.00   1.45222306   0.01004682
9072.00   1.46488476   0.00973665
9074.00   1.48410141   0.00915285
9076.00   1.48477006   0.00893485
9078.00   1.46883023   0.00906276
9080.00   1.45311213   0.00907747
9082.00   1.43335414   0.00887315
9084.00   1.41707456   0.00868315
9086.00   1.41883481   0.00880396
9088.00   1.43557644   0.00917596
9090.00   1.44612944   0.00930944
9092.00   1.45666063   0.00934529
9094.00   1.46916604   0.00935233
9096.00   1.48435509   0.00927068
9098.00   1.49998748   0.00921696
9100.00   1.51618218   0.00932707
9102.00   1.53366899   0.00954776
9104.00   1.53617239   0.00954131
9106.00   1.51954627   0.00928628
9108.00   1.51503348   0.00922199
9110.00   1.51801062   0.00932846
9112.00   1.52285147   0.00941720
9114.00   1.52904367   0.00933975
9116.00   1.53627944   0.00921548
9118.00   1.53570867   0.00949060
9120.00   1.52158105   0.01024646
9122.00   1.52410412   0.01056994
9124.00   1.54237878   0.01078914
9126.00   1.55474901   0.01079500
9128.00   1.55571187   0.01039418
9130.00   1.55109954   0.00985313
9132.00   1.54539001   0.00993614
9134.00   1.53308082   0.01065258
9136.00   1.53058136   0.01065695
9138.00   1.54057729   0.01016706
9140.00   1.54045486   0.00975139
9142.00   1.52347052   0.00935265
9144.00   1.50467646   0.00906779
9146.00   1.50225329   0.00914123
9148.00   1.51138067   0.00946512
9150.00   1.51164556   0.01004643
9152.00   1.51570022   0.01121232
9154.00   1.50481939   0.01175770
9156.00   1.47367644   0.01189688
9158.00   1.44047379   0.01169209
9160.00   1.41921294   0.01095145
9162.00   1.40336692   0.00958102
9164.00   1.38526595   0.00904047
9166.00   1.36914575   0.00914366
9168.00   1.34973812   0.00921191
9170.00   1.32347107   0.00949818
9172.00   1.30244017   0.00973275
9174.00   1.29140103   0.00979168
9176.00   1.28760850   0.00976197
9178.00   1.29298818   0.00971319
9180.00   1.31197512   0.00964788
9182.00   1.32720721   0.00946841
9184.00   1.34192598   0.00905418
9186.00   1.36122978   0.00879064
9188.00   1.38740838   0.00879654
9190.00   1.41742289   0.00895904
9192.00   1.44621944   0.00917829
9194.00   1.47707617   0.00954770
9196.00   1.50421655   0.00978552
9198.00   1.52831185   0.01004741
9200.00   1.55261171   0.01014618
9202.00   1.58449769   0.01001977
9204.00   1.60880995   0.00981367
9206.00   1.60138035   0.00968534
9208.00   1.56303775   0.00953626
9210.00   1.56130874   0.00959083
9212.00   1.58855391   0.00982594
9214.00   1.60092664   0.01007797
9216.00   1.60142732   0.01045565
9218.00   1.59733343   0.01074726
9220.00   1.59009397   0.01079135
9222.00   1.57835579   0.01067235
9224.00   1.57812905   0.01047799
9226.00   1.58474994   0.00994512
9228.00   1.59564638   0.00979853
9230.00   1.62495041   0.01004880
9232.00   1.63796496   0.01027800
9234.00   1.61253023   0.01035365
9236.00   1.56575251   0.01035298
9238.00   1.54182482   0.01015849
9240.00   1.52260172   0.00950742
9242.00   1.51527286   0.00938930
9244.00   1.51311707   0.00944725
9246.00   1.52882934   0.00989293
9248.00   1.57860470   0.01106444
9250.00   1.63750863   0.01223384
9252.00   1.64982033   0.01218994
9254.00   1.62480927   0.01104258
9256.00   1.61862445   0.01057403
9258.00   1.61758947   0.01023864
9260.00   1.61096752   0.01010525
9262.00   1.59034240   0.01025763
9264.00   1.57374620   0.01053046
9266.00   1.58504319   0.01072345
9268.00   1.61796391   0.01091530
9270.00   1.64324391   0.01116082
9272.00   1.68251038   0.01158142
9274.00   1.69812143   0.01173486
9276.00   1.69988334   0.01142219
9278.00   1.67753553   0.01127190
9280.00   1.61011994   0.01188590
9282.00   1.50453472   0.01293478
9284.00   1.45969284   0.01326128
9286.00   1.45436871   0.01332153
9288.00   1.44775319   0.01305437
9290.00   1.45911717   0.01179682
9292.00   1.46284568   0.01116500
9294.00   1.43900371   0.01248023
9296.00   1.40427542   0.01444666
9298.00   1.41000795   0.01462598
9300.00   1.45426273   0.01306083
9302.00   1.47973144   0.01296706
9304.00   1.50335133   0.01326311
9306.00   1.52516699   0.01433828
9308.00   1.55120897   0.01667646
9310.00   1.57149649   0.01897884
9312.00   1.56073666   0.01938827
9314.00   1.51381707   0.01818240
9316.00   1.49904394   0.01831165
9318.00   1.50956988   0.01890915
9320.00   1.50337291   0.01979687
9322.00   1.47949004   0.02126496
9324.00   1.44388247   0.02259810
9326.00   1.39149916   0.02310647
9328.00   1.31171632   0.02326613
9330.00   1.29988098   0.02228056
9332.00   1.34460032   0.01852233
9334.00   1.38523066   0.01709677
9336.00   1.45807827   0.01903604
9338.00   1.49904382   0.02092446
9340.00   1.43995178   0.02106835
9342.00   1.30997288   0.02043849
9344.00   1.26708972   0.01910761
9346.00   1.26885521   0.01555145
9348.00   1.27739120   0.01361043
9350.00   1.31566727   0.01338306
9352.00   1.34702396   0.01354607
9354.00   1.34689867   0.01363002
9356.00   1.33550274   0.01389605
9358.00   1.36690307   0.01401848
9360.00   1.44455421   0.01393734
9362.00   1.48840857   0.01427301
9364.00   1.52974463   0.01445986
9366.00   1.54758275   0.01549149
9368.00   1.52717519   0.01722320
9370.00   1.49084949   0.01954468
9372.00   1.48185873   0.02291781
9374.00   1.48850751   0.02806080
9376.00   1.48618937   0.02888611
9378.00   1.47620893   0.02670382
9380.00   1.47720551   0.02430139
9382.00   1.49833906   0.02106741
9384.00   1.51880264   0.01740059
9386.00   1.51262999   0.01520534
9388.00   1.48640430   0.01444712
9390.00   1.47634602   0.01335945
9392.00   1.48552632   0.01278010
9394.00   1.46778357   0.01223383
9396.00   1.40836632   0.01172923
9398.00   1.35830104   0.01147440
9400.00   1.35803068   0.01170955
9402.00   1.38856840   0.01232399
9404.00   1.39853156   0.01244963
9406.00   1.41226196   0.01180437
9408.00   1.40788317   0.01231086
9410.00   1.37090552   0.01384795
9412.00   1.35200417   0.01521371
9414.00   1.37746739   0.01614166
9416.00   1.42697001   0.01688969
9418.00   1.46215856   0.01742117
9420.00   1.51901090   0.01790408
9422.00   1.52098358   0.01790624
9424.00   1.45486426   0.01747690
9426.00   1.42064095   0.01683064
9428.00   1.43812025   0.01539979
9430.00   1.48433387   0.01402325
9432.00   1.55184174   0.01531759
9434.00   1.68482423   0.01875594
9436.00   1.69067943   0.02025667
9438.00   1.57877529   0.02177947
9440.00   1.49813545   0.02192720
9442.00   1.43954778   0.02005013
9444.00   1.40515101   0.01739291
9446.00   1.42342973   0.01584224
9448.00   1.49315846   0.01464137
9450.00   1.52580738   0.01469653
9452.00   1.55534148   0.01640602
9454.00   1.56577420   0.01757050
9456.00   1.55722725   0.01890042
9458.00   1.53523207   0.01962563
9460.00   1.49962676   0.01898227
9462.00   1.44988358   0.01724588
9464.00   1.41326785   0.01640010
9466.00   1.36872780   0.01566454
9468.00   1.35438955   0.01555027
9470.00   1.37601757   0.01609745
9472.00   1.39526188   0.01690525
9474.00   1.40148365   0.01814906
9476.00   1.39976799   0.01946305
9478.00   1.37151611   0.01923900
9480.00   1.28435659   0.01726138
9482.00   1.27615857   0.01624043
9484.00   1.33038235   0.01539701
9486.00   1.37881374   0.01478845
9488.00   1.41737843   0.01438755
9490.00   1.44634032   0.01431292
9492.00   1.44033372   0.01485803
9494.00   1.39693582   0.01621909
9496.00   1.37530422   0.01661972
9498.00   1.34981370   0.01649098
9500.00   1.34189928   0.01633087
9502.00   1.35276902   0.01611751
9504.00   1.37726402   0.01582935
9506.00   1.41616654   0.01547686
9508.00   1.47609007   0.01500182
9510.00   1.50062776   0.01478519
9512.00   1.49710870   0.01416542
9514.00   1.50011551   0.01484794
9516.00   1.50662506   0.01731157
9518.00   1.51087749   0.01919749
9520.00   1.51159811   0.01945395
9522.00   1.50961590   0.01880931
9524.00   1.49499190   0.01785332
9526.00   1.45336747   0.01543408
9528.00   1.44292057   0.01413273
9530.00   1.46477783   0.01385634
9532.00   1.47974634   0.01377943
9534.00   1.46568215   0.01356267
9536.00   1.44161010   0.01345073
9538.00   1.45238888   0.01365265
9540.00   1.49316180   0.01418137
9542.00   1.52262545   0.01466692
9544.00   1.55856037   0.01523244
9546.00   1.58563972   0.01581233
9548.00   1.60496676   0.01634243
9550.00   1.61324513   0.01692740
9552.00   1.59729052   0.01785101
9554.00   1.55600393   0.01949722
9556.00   1.51990986   0.01926273
9558.00   1.46137047   0.01664445
9560.00   1.43422580   0.01526897
9562.00   1.45562971   0.01603019
9564.00   1.48246753   0.01713727
9566.00   1.46560657   0.01715185
9568.00   1.41848612   0.01667370
9570.00   1.41034234   0.01622580
9572.00   1.44264853   0.01520927
9574.00   1.43999207   0.01489886
9576.00   1.40110338   0.01495510
9578.00   1.35793161   0.01576883
9580.00   1.32038629   0.01803095
9582.00   1.28247237   0.02098859
9584.00   1.31096888   0.02120024
9586.00   1.45824766   0.01911392
9588.00   1.47708440   0.01757257
9590.00   1.37658918   0.01539662
9592.00   1.28942740   0.01361555
9594.00   1.26150334   0.01315533
9596.00   1.26195264   0.01356736
9598.00   1.28640056   0.01371139
9600.00   1.36832166   0.01420171
9602.00   1.39351964   0.01431634
9604.00   1.38520968   0.01422224
9606.00   1.37381947   0.01407100
9608.00   1.35998356   0.01380958
9610.00   1.34513688   0.01353649
9612.00   1.34238756   0.01351661
9614.00   1.34858429   0.01363378
9616.00   1.35354877   0.01394966
9618.00   1.36722553   0.01468536
9620.00   1.36947155   0.01506971
9622.00   1.35865247   0.01515913
9624.00   1.34107947   0.01500008
9626.00   1.31846941   0.01440807
9628.00   1.28540707   0.01318991
9630.00   1.28205538   0.01322095
9632.00   1.31845975   0.01467623
9634.00   1.32191110   0.01506783
9636.00   1.28718328   0.01454121
9638.00   1.25537026   0.01384064
9640.00   1.25236571   0.01337639
9642.00   1.26488233   0.01294226
9644.00   1.27883267   0.01280733
9646.00   1.30047834   0.01303533
9648.00   1.32527769   0.01314796
9650.00   1.35978174   0.01316907
9652.00   1.38975894   0.01334368
9654.00   1.41463256   0.01370990
9656.00   1.43227398   0.01424350
9658.00   1.41967511   0.01510607
9660.00   1.36456108   0.01681864
9662.00   1.34212005   0.01706138
9664.00   1.33566761   0.01617741
9666.00   1.32894623   0.01528195
9668.00   1.31686914   0.01436126
9670.00   1.30714583   0.01354120
9672.00   1.31004632   0.01362978
9674.00   1.32107353   0.01463900
9676.00   1.34211373   0.01494364
9678.00   1.39162397   0.01490681
9680.00   1.41280389   0.01501650
9682.00   1.39654899   0.01541662
9684.00   1.37079346   0.01571529
9686.00   1.36095560   0.01550047
9688.00   1.35640097   0.01487305
9690.00   1.35077631   0.01447369
9692.00   1.34881055   0.01395136
9694.00   1.34220660   0.01375590
9696.00   1.33078527   0.01402201
9698.00   1.31832194   0.01427061
9700.00   1.30704892   0.01411906
9702.00   1.29580522   0.01375991
9704.00   1.28367543   0.01402836
9706.00   1.26134098   0.01506757
9708.00   1.26048970   0.01536697
9710.00   1.27671325   0.01477083
9712.00   1.30093563   0.01474370
9714.00   1.33796966   0.01611863
9716.00   1.38002837   0.01791452
9718.00   1.38815010   0.01848560
9720.00   1.36890042   0.01833518
9722.00   1.35105526   0.01825012
9724.00   1.30603611   0.01793708
9726.00   1.29010451   0.01754800
9728.00   1.32694268   0.01705733
9730.00   1.37836218   0.01650527
9732.00   1.38525319   0.01602598
9734.00   1.36435521   0.01551119
9736.00   1.35113835   0.01525334
9738.00   1.32727158   0.01532999
9740.00   1.31434333   0.01527604
9742.00   1.31643260   0.01508472
9744.00   1.32135379   0.01484015
9746.00   1.31603026   0.01450159
9748.00   1.30362523   0.01396322
9750.00   1.30911386   0.01429965
9752.00   1.33698905   0.01577444
9754.00   1.34727848   0.01628712
9756.00   1.34143746   0.01606664
9758.00   1.33246541   0.01558458
9760.00   1.32754588   0.01495293
9762.00   1.32290077   0.01407550
9764.00   1.31530190   0.01386229
9766.00   1.29967129   0.01433898
9768.00   1.29643583   0.01446995
9770.00   1.30122793   0.01427757
9772.00   1.31204522   0.01439683
9774.00   1.33506358   0.01517633
9776.00   1.36197090   0.01620686
9778.00   1.35861719   0.01672448
9780.00   1.31989288   0.01710764
9782.00   1.31148815   0.01714346
9784.00   1.32403064   0.01628280
9786.00   1.32835674   0.01626127
9788.00   1.31515527   0.01772186
9790.00   1.29933846   0.01943365
9792.00   1.30158019   0.02008831
9794.00   1.31647098   0.02040528
9796.00   1.32896698   0.01991519
9798.00   1.35464036   0.01794195
9800.00   1.36098969   0.01666021
9802.00   1.33708477   0.01639478
9804.00   1.31193316   0.01642560
9806.00   1.31713557   0.01614588
9808.00   1.34328234   0.01578517
9810.00   1.34402466   0.01572645
9812.00   1.32996464   0.01601534
9814.00   1.31583655   0.01612067
9816.00   1.29241407   0.01617426
9818.00   1.27578688   0.01608712
9820.00   1.28091407   0.01570468
9822.00   1.29970622   0.01509186
9824.00   1.29749537   0.01485679
9826.00   1.28058267   0.01498303
9828.00   1.26806593   0.01486973
9830.00   1.25217116   0.01432732
9832.00   1.24062824   0.01424910
9834.00   1.23030329   0.01505682
9836.00   1.22690213   0.01628185
9838.00   1.25951409   0.01727538
9840.00   1.34388089   0.01881646
9842.00   1.38092339   0.01890941
9844.00   1.40317965   0.01741100
9846.00   1.40277588   0.01644791
9848.00   1.36641836   0.01651180
9850.00   1.31771028   0.01703921
9852.00   1.29843032   0.01767071
9854.00   1.29226482   0.01878269
9856.00   1.29600441   0.01899956
9858.00   1.32868218   0.01864620
9860.00   1.33620608   0.01812173
9862.00   1.30994356   0.01696644
9864.00   1.27828598   0.01600683
9866.00   1.26565814   0.01649932
9868.00   1.26098752   0.01802742
9870.00   1.26431632   0.01866011
9872.00   1.29089034   0.01919370
9874.00   1.29253507   0.01926005
9876.00   1.25931227   0.01865404
9878.00   1.23619068   0.01802599
9880.00   1.25456667   0.01778053
9882.00   1.29725862   0.01771976
9884.00   1.31995595   0.01792743
9886.00   1.34469795   0.01863612
9888.00   1.34982920   0.01894104
9890.00   1.33241665   0.01887740
9892.00   1.31495726   0.01899834
9894.00   1.30467749   0.01972736
9896.00   1.29617071   0.02055824
9898.00   1.28689301   0.02022214
9900.00   1.27080333   0.01820367
9902.00   1.27422619   0.01806998
9904.00   1.29803288   0.01952644
9906.00   1.31726730   0.02040131
9908.00   1.33086777   0.02037908
9910.00   1.33966184   0.02010518
9912.00   1.33870840   0.02025417
9914.00   1.33052754   0.02071558
9916.00   1.31241596   0.02060246
9918.00   1.28005266   0.02009155
9920.00   1.24899209   0.01946422
9922.00   1.20904911   0.01848196
9924.00   1.17935967   0.01754564
9926.00   1.18566549   0.01721951
9928.00   1.22140586   0.01733358
9930.00   1.23310828   0.01744789
9932.00   1.23496103   0.01739994
9934.00   1.23806632   0.01814853
9936.00   1.23845184   0.01943755
9938.00   1.24089098   0.02118511
9940.00   1.25135434   0.02381320
9942.00   1.26634169   0.02677625
9944.00   1.26530194   0.02704915
9946.00   1.25031006   0.02419321
9948.00   1.23833621   0.02360076
9950.00   1.23481703   0.02437303
9952.00   1.21360648   0.02537779
9954.00   1.14920855   0.02674328
9956.00   1.07142425   0.02805604
9958.00   1.06673479   0.02736940
9960.00   1.12953544   0.02410827
9962.00   1.15780163   0.02273542
9964.00   1.18728209   0.02252370
9966.00   1.20374370   0.02216514
9968.00   1.19932258   0.02137807
9970.00   1.18795538   0.02059099
9972.00   1.19291377   0.02030715
9974.00   1.21324801   0.02045580
9976.00   1.20287061   0.02044493
9978.00   1.15939939   0.02063535
9980.00   1.13382316   0.02050296
9982.00   1.12267745   0.01989787
9984.00   1.12332654   0.01921673
9986.00   1.14163530   0.01885301
9988.00   1.17898524   0.01864410
9990.00   1.19148326   0.01857126
9992.00   1.18086410   0.01859597
9994.00   1.18775976   0.01886867
9996.00   1.21692693   0.01935090
9998.00   1.23836052   0.02002979
10000.00   1.22829020   0.02096464
10002.00   1.20064127   0.02207362
10004.00   1.21047068   0.02286321
10006.00   1.25123549   0.02321951
10008.00   1.28050327   0.02417290
10010.00   1.31699872   0.02588747
10012.00   1.34046626   0.02704718
10014.00   1.33820105   0.02730491
10016.00   1.32387066   0.02705237
10018.00   1.32950652   0.02664736
10020.00   1.35178006   0.02560202
10022.00   1.35718346   0.02519921
10024.00   1.35696423   0.02501082
10026.00   1.34789324   0.02520728
10028.00   1.31677651   0.02632171
10030.00   1.28797281   0.02730805
10032.00   1.30830097   0.02639895
10034.00   1.37885594   0.02350239
10036.00   1.38835371   0.02230926
10038.00   1.34818971   0.02207745
10040.00   1.33015192   0.02195021
10042.00   1.33264160   0.02205798
10044.00   1.34411883   0.02230594
10046.00   1.36312783   0.02244071
10048.00   1.39391541   0.02249723
10050.00   1.39615345   0.02338314
10052.00   1.36223471   0.02541341
10054.00   1.35885692   0.02636186
10056.00   1.38293517   0.02628934
10058.00   1.41125023   0.02630028
10060.00   1.43835700   0.02724510
10062.00   1.46632135   0.02855276
10064.00   1.45559371   0.02820824
10066.00   1.38831878   0.02588676
10068.00   1.37007892   0.02485510
10070.00   1.38523269   0.02434578
10072.00   1.40082622   0.02430675
10074.00   1.40689564   0.02484390
10076.00   1.41161430   0.02577523
10078.00   1.42087865   0.02659042
10080.00   1.44052577   0.02773525
10082.00   1.43923306   0.02819149
10084.00   1.42891741   0.02836829
10086.00   1.40258837   0.02805919
10088.00   1.34413874   0.02691147
10090.00   1.28352273   0.02548076
10092.00   1.27378953   0.02485226
10094.00   1.30744338   0.02469253
10096.00   1.30441380   0.02466164
10098.00   1.27967894   0.02501118
10100.00   1.26462674   0.02531000
10102.00   1.25522912   0.02564833
10104.00   1.25348032   0.02592200
10106.00   1.26791227   0.02594591
10108.00   1.29823840   0.02575753
10110.00   1.30122173   0.02595425
10112.00   1.28505313   0.02646091
10114.00   1.26947939   0.02686299
10116.00   1.24581742   0.02707475
10118.00   1.22616518   0.02750762
10120.00   1.21868634   0.02853940
10122.00   1.21866012   0.02987299
10124.00   1.21847129   0.03031665
10126.00   1.22602415   0.03028115
10128.00   1.22395670   0.02992147
10130.00   1.21555126   0.02895817
10132.00   1.20446479   0.02796069
10134.00   1.18608034   0.02689118
10136.00   1.16761458   0.02591465
10138.00   1.17513227   0.02609436
10140.00   1.20950139   0.02760960
10142.00   1.22858179   0.02814363
10144.00   1.25092268   0.02800736
10146.00   1.25994730   0.02839089
10148.00   1.24511766   0.02960355
10150.00   1.22609591   0.03097689
10152.00   1.23458338   0.03186310
10154.00   1.26740837   0.03275695
10156.00   1.26807773   0.03254796
10158.00   1.25384092   0.03081479
10160.00   1.22672999   0.02982135
10162.00   1.17040408   0.02936303
10164.00   1.12059534   0.02951733
10166.00   1.11466968   0.03071948
10168.00   1.13830900   0.03282638
10170.00   1.15344274   0.03375695
10172.00   1.18792593   0.03437996
10174.00   1.19348943   0.03434774
10176.00   1.16807163   0.03286710
10178.00   1.13999999   0.03202787
10180.00   1.12477827   0.03343623
10182.00   1.11341488   0.03597770
10184.00   1.09504783   0.03709015
10186.00   1.05309010   0.03801108
10188.00   1.05564916   0.03790347
10190.00   1.10865247   0.03659738
10192.00   1.14666820   0.03510058
10194.00   1.14724314   0.03335423
10196.00   1.13141179   0.03158900
10198.00   1.12440348   0.03151538
10200.00   1.12063813   0.03314541
10202.00   1.10425866   0.03399251
10204.00   1.06940687   0.03499247
10206.00   1.04673517   0.03563144
10208.00   1.04913652   0.03595109
10210.00   1.05221510   0.03591623
10212.00   1.01963675   0.03522835
10214.00   0.95503199   0.03358556
10216.00   0.92478335   0.03322819
10218.00   0.90653288   0.03395250
10220.00   0.90411508   0.03430023
10222.00   0.92459697   0.03430709
10224.00   0.95132935   0.03426006
10226.00   0.96927875   0.03427694
10228.00   0.98547822   0.03427350
10230.00   0.99996072   0.03462785
10232.00   1.02414560   0.03600091
10234.00   1.02154720   0.03584509
10236.00   0.99100310   0.03358715
10238.00   0.95330989   0.03173896
10240.00   0.91167969   0.03232922
10242.00   0.86596078   0.03412745
10244.00   0.86056840   0.03393175
10246.00   0.89814943   0.03186447
10248.00   0.91726458   0.03125479
10250.00   0.93127584   0.03158014
10252.00   0.94938236   0.03191649
10254.00   0.97934574   0.03205154
10256.00   1.01125598   0.03214898
10258.00   1.01873946   0.03214898
10260.00   0.99154150   0.03174929
10262.00   1.01117647   0.03225408
10264.00   1.08274972   0.03376081
10266.00   1.12021303   0.03473647
10268.00   1.11732054   0.03501876
10270.00   1.08655977   0.03503186
10272.00   1.02334654   0.03470947
10274.00   0.90982187   0.03275405
10276.00   0.86304969   0.03677483
10278.00   0.84160292   0.04612059
10280.00   0.85813159   0.05135467
10282.00   0.93437338   0.05390187
10284.00   1.01854813   0.05540777
10286.00   1.06801891   0.05677528
10288.00   1.10512018   0.05778433
10290.00   1.09859955   0.05643505
10292.00   1.03383315   0.05127605
10294.00   0.99107957   0.04839590
10296.00   0.93329149   0.04740271
10298.00   0.91263282   0.04689841
10300.00   0.97583157   0.04645826
10302.00   1.09127820   0.04628411
10304.00   1.13753295   0.04511334
10306.00   1.15310323   0.04255418
10308.00   1.15359974   0.04117635
10310.00   1.13670754   0.04069302
10312.00   1.09704983   0.04016450
10314.00   1.02010190   0.03863028
10316.00   0.92661232   0.03730863
10318.00   0.87355000   0.03970243
10320.00   0.82962263   0.04653283
10322.00   0.83362383   0.04755751
10324.00   0.90516388   0.04411516
10326.00   0.95355082   0.04212417
10328.00   0.94901288   0.04171691
10330.00   0.95027983   0.04298245
10332.00   1.04227984   0.04778288
10334.00   1.22569275   0.05635086
10336.00   1.28187263   0.05725156
10338.00   1.25368977   0.05199133
10340.00   1.22312856   0.04816484
10342.00   1.17156363   0.04486741
10344.00   1.11969674   0.04262493
10346.00   1.08229768   0.04240588
10348.00   1.04610169   0.04369618
10350.00   1.10275853   0.04884525
10352.00   1.33544171   0.06166961
10354.00   1.37908614   0.06375229
10356.00   1.19824874   0.05444619
10358.00   1.06786144   0.04567519
10360.00   1.17432725   0.04889955
10362.00   1.39358354   0.05711757
10364.00   1.35521710   0.05729008
10366.00   1.04712987   0.05123508
10368.00   0.95221239   0.04897981
10370.00   0.97070301   0.04853500
10372.00   1.00867653   0.04829566
10374.00   1.05783796   0.04796685
10376.00   1.11586034   0.04773493
10378.00   1.12551236   0.04723341
10380.00   1.09618676   0.04641727
10382.00   1.07936454   0.04602291
10384.00   1.04312623   0.04610338
10386.00   1.03438354   0.04587873
10388.00   1.07086444   0.04499719
10390.00   1.11703777   0.04413383
10392.00   1.12788928   0.04433519
10394.00   1.12122476   0.04549949
10396.00   1.10373664   0.04553667
10398.00   1.05293238   0.04482538
10400.00   1.03102624   0.04425464
10402.00   1.02730107   0.04345034
10404.00   1.04929245   0.04302105
10406.00   1.11804521   0.04360442
10408.00   1.23006535   0.04489532
10410.00   1.28388190   0.04652246
10412.00   1.32303250   0.04946496
10414.00   1.31739795   0.05075563
10416.00   1.24467933   0.05086734
10418.00   1.17650998   0.05041684
10420.00   1.15566659   0.04934113
10422.00   1.15454197   0.04772391
10424.00   1.11734629   0.04745039
10426.00   1.04060650   0.04809038
10428.00   1.00288534   0.04890098
10430.00   0.95602137   0.05074107
10432.00   0.97093499   0.05175686
10434.00   1.11742759   0.05160124
10436.00   1.30012178   0.05059341
10438.00   1.28351700   0.04844073
10440.00   1.07001805   0.04290601
10442.00   1.02599204   0.04287511
10444.00   1.07906699   0.04877841
10446.00   1.11450148   0.05139301
10448.00   1.12638175   0.04988580
10450.00   1.13003612   0.04704389
10452.00   1.12750363   0.04579290
10454.00   1.11940098   0.04505361
10456.00   1.09641874   0.04424703
10458.00   1.04415643   0.04324764
10460.00   1.01584852   0.04304189
10462.00   1.01233733   0.04387246
10464.00   1.01691914   0.04491431
10466.00   1.02414417   0.04569760
10468.00   1.03964961   0.04652305
10470.00   1.01311958   0.04620999
10472.00   0.92592072   0.04451786
10474.00   0.89252824   0.04342368
10476.00   0.90136421   0.04245307
10478.00   0.92096841   0.04180212
10480.00   0.94121301   0.04172703
10482.00   0.96709073   0.04205230
10484.00   0.98221940   0.04207060
10486.00   0.97986823   0.04197828
10488.00   1.00239515   0.04196754
10490.00   1.06857467   0.04203890
10492.00   1.09448195   0.04204241
10494.00   1.02245319   0.04125482
10496.00   0.92890680   0.04076473
10498.00   0.98719490   0.04374511
10500.00   1.21994603   0.05108621
10502.00   1.25053108   0.05173355
10504.00   1.13461685   0.04698262
10506.00   1.04544938   0.04341367
10508.00   0.98878396   0.04191077
10510.00   0.94604427   0.04122638
10512.00   0.92180443   0.04074666
10514.00   0.91592515   0.04085469
10516.00   0.91682369   0.04093481
10518.00   0.94270974   0.04131541
10520.00   0.94910485   0.04159018
10522.00   0.94155276   0.04197337
10524.00   0.92020375   0.04209607
10526.00   0.87282687   0.04148423
10528.00   0.80024260   0.04026296
10530.00   0.79310900   0.03983558
10532.00   0.86501431   0.04008859
10534.00   0.87348646   0.03991532
10536.00   0.82562226   0.03914382
10538.00   0.78030777   0.03879217
10540.00   0.76018167   0.03964387
10542.00   0.75263041   0.04108000
10544.00   0.76977473   0.04122849
10546.00   0.84583050   0.04035758
10548.00   0.85091257   0.03988029
10550.00   0.78231591   0.03907239
10552.00   0.74903941   0.03880489
10554.00   0.79904008   0.03961308
10556.00   0.87323034   0.04077161
10558.00   0.86553770   0.04089236
10560.00   0.78762794   0.04015799
10562.00   0.76459324   0.04013526
10564.00   0.76315367   0.04047455
10566.00   0.76852357   0.04079578
10568.00   0.78925538   0.04097867
10570.00   0.80914468   0.04128253
10572.00   0.80291814   0.04191671
10574.00   0.78159583   0.04258044
10576.00   0.74332553   0.04454324
10578.00   0.63341516   0.04909487
10580.00   0.62186593   0.05049830
10582.00   0.74624264   0.04834691
10584.00   0.86990541   0.04565809
10586.00   0.88140255   0.04500131
10588.00   0.82954282   0.04529528
10590.00   0.81539017   0.04525880
10592.00   0.81259161   0.04554415
10594.00   0.79570854   0.04544831
10596.00   0.75895363   0.04482535
10598.00   0.73096687   0.04442159
10600.00   0.72608167   0.04468170
10602.00   0.73499155   0.04529623
10604.00   0.74607784   0.04561476
10606.00   0.77467692   0.04597002
10608.00   0.78316641   0.04603742
10610.00   0.77168787   0.04563887
10612.00   0.76962996   0.04552216
10614.00   0.78570509   0.04597470
10616.00   0.81026667   0.04664134
10618.00   0.83310771   0.04699787
10620.00   0.86590433   0.04730995
10622.00   0.87532473   0.04732725
10624.00   0.86972302   0.04702770
10626.00   0.85459942   0.04670087
10628.00   0.82066482   0.04628519
10630.00   0.78613263   0.04588328
10632.00   0.77848554   0.04569815
10634.00   0.78929651   0.04566335
10636.00   0.79626387   0.04566309
10638.00   0.80072713   0.04568083
10640.00   0.82068664   0.04588243
10642.00   0.86592042   0.04639028
10644.00   0.90839052   0.04686188
10646.00   0.92815167   0.04706779
10648.00   0.93546456   0.04713407
10650.00   0.91918105   0.04685381
10652.00   0.86195081   0.04607310
10654.00   0.83209187   0.04549063
10656.00   0.80664462   0.04480745
10658.00   0.80588359   0.04439921
10660.00   0.85065711   0.04458721
10662.00   0.92381024   0.04512190
10664.00   0.96020240   0.04519549
10666.00   0.99634320   0.04528919
10668.00   0.98832446   0.04476736
10670.00   0.92310047   0.04344713
10672.00   0.87167639   0.04226185
10674.00   0.84673595   0.04139323
10676.00   0.83761251   0.04072616
10678.00   0.85117072   0.04042118
10680.00   0.90074837   0.04065686
10682.00   0.91631538   0.04043264
10684.00   0.91296750   0.03997741
10686.00   0.90958393   0.03950966
10688.00   0.90106690   0.03898309
10690.00   0.89635587   0.03847273
10692.00   0.91405350   0.03804138
10694.00   0.95398843   0.03748642
10696.00   0.96215624   0.03804268
10698.00   0.94841808   0.03924918
10700.00   0.93612415   0.04115130
10702.00   0.90835559   0.04484317
10704.00   0.89682919   0.04741075
10706.00   0.93444425   0.04673621
10708.00   1.00777972   0.04377877
10710.00   1.05360138   0.04142315
10712.00   1.10477567   0.03751325
10714.00   1.12454593   0.03547281
10716.00   1.10621798   0.03554873
10718.00   1.08776474   0.03584908
10720.00   1.08605945   0.03559804
10722.00   1.09027815   0.03526775
10724.00   1.09310544   0.03488719
10726.00   1.09079897   0.03431658
10728.00   1.10498595   0.03398275
10730.00   1.13920474   0.03392622
10732.00   1.16619205   0.03370422
10734.00   1.18581724   0.03292128
10736.00   1.19473588   0.03213635
10738.00   1.17033029   0.03269913
10740.00   1.09932113   0.03476681
10742.00   1.07969868   0.03511645
10744.00   1.08996964   0.03472467
10746.00   1.10458827   0.03373772
10748.00   1.12599373   0.03154601
10750.00   1.15125382   0.02910448
10752.00   1.17325377   0.02818671
10754.00   1.19635010   0.02838575
10756.00   1.21136010   0.02825758
10758.00   1.24101257   0.02793917
10760.00   1.22418988   0.02846104
10762.00   1.13344860   0.03053829
10764.00   1.05250418   0.03198372
10766.00   1.04343069   0.03105173
10768.00   1.07616341   0.02838341
10770.00   1.13497543   0.02767547
10772.00   1.27594483   0.02850604
10774.00   1.33455515   0.02844712
10776.00   1.32365930   0.02790821
10778.00   1.30536377   0.02722728
10780.00   1.30237627   0.02640755
10782.00   1.30113244   0.02547823
10784.00   1.30678940   0.02509051
10786.00   1.31445062   0.02532341
10788.00   1.33440602   0.02518911
10790.00   1.37256455   0.02492253
10792.00   1.40420246   0.02467572
10794.00   1.43087113   0.02444156
10796.00   1.44695544   0.02425290
10798.00   1.42394245   0.02420172
10800.00   1.33625317   0.02389252
10802.00   1.34895706   0.02493302
10804.00   1.48153985   0.02767259
10806.00   1.52694213   0.02917420
10808.00   1.43597150   0.02969386
10810.00   1.32693732   0.02937277
10812.00   1.32841825   0.02757712
10814.00   1.39608765   0.02351593
10816.00   1.44782972   0.02250299
10818.00   1.55502105   0.02472169
10820.00   1.57889843   0.02509204
10822.00   1.48719251   0.02361442
10824.00   1.40189731   0.02201881
10826.00   1.41827035   0.02150058
10828.00   1.49238753   0.02152847
10830.00   1.52410817   0.02279910
10832.00   1.56578183   0.02649299
10834.00   1.55850744   0.02730098
10836.00   1.49023831   0.02594978
10838.00   1.42652440   0.02411728
10840.00   1.39633286   0.02213250
10842.00   1.38006866   0.01982924
10844.00   1.35926223   0.01949888
10846.00   1.32145381   0.02193385
10848.00   1.33245444   0.02194663
10850.00   1.39538908   0.02042880
10852.00   1.44765592   0.01911907
10854.00   1.48347747   0.01831408
10856.00   1.50508749   0.01791244
10858.00   1.49052095   0.01842833
10860.00   1.43062031   0.01986434
10862.00   1.40639627   0.02099337
10864.00   1.41637981   0.02287623
10866.00   1.39109027   0.02345155
10868.00   1.30583167   0.02218662
