# File created by shivutils (I.Shivvers)
# wl(A)   flm    er(optional)
3460.00   0.13928302   0.10173222
3461.00   0.11117449   0.10298131
3462.00   0.33602837   0.10745683
3463.00   0.39226049   0.10780073
3464.00   0.13939758   0.10652146
3465.00   0.17465051   0.10366181
3466.00   0.09985848   0.10355572
3467.00   0.12221662   0.10371879
3468.00   0.19806902   0.10317099
3469.00   0.36649626   0.10777706
3470.00   0.34981158   0.10506495
3471.00   0.29371127   0.10512337
3472.00   0.56479055   0.11024792
3473.00   0.24214219   0.10545578
3474.00   0.03710872   0.10650015
3475.00   0.39590487   0.10939867
3476.00   0.08074430   0.10968284
3477.00   0.14872350   0.11433715
3478.00   -0.00670635   0.11692671
3479.00   0.33383912   0.11879622
3480.00   0.12782782   0.11979851
3481.00   0.21275680   0.12106248
3482.00   0.51620144   0.12331871
3483.00   0.32899967   0.11994617
3484.00   0.41975957   0.11999575
3485.00   0.55588961   0.12123024
3486.00   0.61625713   0.11990224
3487.00   0.61210328   0.11784786
3488.00   0.46264088   0.11462285
3489.00   0.42661527   0.11275716
3490.00   0.48864451   0.11245921
3491.00   0.46616754   0.11143719
3492.00   0.47209448   0.11245833
3493.00   0.45593253   0.11176971
3494.00   0.36904910   0.10844363
3495.00   0.26887983   0.10624612
3496.00   0.22148351   0.10538644
3497.00   0.17647317   0.10409037
3498.00   0.06640154   0.10396668
3499.00   -0.05238287   0.10436703
3500.00   -0.02972065   0.10393441
3501.00   0.19742049   0.10560018
3502.00   0.37336671   0.10667390
3503.00   0.47966090   0.10817085
3504.00   0.52569300   0.10800692
3505.00   0.34170100   0.10114568
3506.00   0.34659770   0.10214560
3507.00   0.57062536   0.11001697
3508.00   0.51588780   0.10936175
3509.00   0.40397450   0.10743493
3510.00   -0.01341571   0.10644713
3511.00   0.26809758   0.10740846
3512.00   0.40511885   0.10293372
3513.00   0.43701738   0.10301607
3514.00   0.33390227   0.10382842
3515.00   0.25373858   0.10283880
3516.00   0.30483040   0.10126950
3517.00   0.29092100   0.10194776
3518.00   0.29373321   0.09998916
3519.00   0.41924983   0.10313848
3520.00   -0.00718162   0.10271151
3521.00   0.52276105   0.10417260
3522.00   0.48691091   0.10360933
3523.00   0.37227499   0.10107001
3524.00   0.35861686   0.09885486
3525.00   0.49637780   0.10161464
3526.00   0.39917207   0.09885225
3527.00   0.04852301   0.09575164
3528.00   0.29241702   0.09760464
3529.00   0.47353721   0.09997854
3530.00   0.42157185   0.09957837
3531.00   0.22507711   0.09599069
3532.00   0.28087893   0.09564491
3533.00   0.14978191   0.09498375
3534.00   0.25940144   0.09855893
3535.00   0.50737578   0.10080630
3536.00   0.37995827   0.09637656
3537.00   0.15923502   0.09463184
3538.00   0.16565661   0.10031631
3539.00   0.24472547   0.10340746
3540.00   0.23122926   0.10381888
3541.00   0.23130412   0.10670131
3542.00   0.32674176   0.11084334
3543.00   0.11284021   0.11132049
3544.00   0.04775394   0.10918612
3545.00   0.25420326   0.10907161
3546.00   0.34748355   0.10997645
3547.00   0.40120703   0.11000119
3548.00   0.23420739   0.10873912
3549.00   0.12905511   0.10636408
3550.00   0.18459861   0.10496745
3551.00   0.27815571   0.10738936
3552.00   0.41553995   0.10990657
3553.00   0.06477777   0.10846812
3554.00   -0.01709011   0.10858536
3555.00   0.40954655   0.10510249
3556.00   0.41813618   0.10482148
3557.00   0.39080492   0.10670620
3558.00   0.45724767   0.10407508
3559.00   0.29824227   0.09889312
3560.00   0.18938796   0.09656784
3561.00   0.09156306   0.09612320
3562.00   0.25257856   0.09914672
3563.00   0.24205706   0.09885249
3564.00   0.20530508   0.09507596
3565.00   0.56739140   0.09823965
3566.00   0.38191998   0.09628140
3567.00   0.06968793   0.09416132
3568.00   0.29304412   0.09311784
3569.00   0.12037636   0.09190699
3570.00   -0.04126683   0.09102519
3571.00   -0.01271273   0.09456272
3572.00   0.36413714   0.09782452
3573.00   0.38657042   0.09436804
3574.00   0.34954867   0.09446325
3575.00   0.23741059   0.09384548
3576.00   0.23359159   0.09249718
3577.00   0.33519915   0.09133539
3578.00   0.34040406   0.08954526
3579.00   0.27668059   0.09034316
3580.00   0.26329070   0.09114799
3581.00   0.26043767   0.09196546
3582.00   0.31414238   0.08923057
3583.00   0.33388343   0.08670594
3584.00   0.23543434   0.08389299
3585.00   0.20208439   0.08300211
3586.00   0.19698443   0.08301163
3587.00   0.22891872   0.08463170
3588.00   0.30740708   0.08795970
3589.00   0.32627198   0.08898544
3590.00   0.21102205   0.08643539
3591.00   0.22146520   0.08521663
3592.00   0.38459975   0.08686633
3593.00   0.32814389   0.08455586
3594.00   0.16938017   0.08282983
3595.00   0.24838695   0.08496456
3596.00   0.30461562   0.08349690
3597.00   0.28457245   0.08141132
3598.00   0.40687943   0.08290806
3599.00   0.29710910   0.08326623
3600.00   0.14211163   0.08151668
3601.00   0.27496544   0.08190257
3602.00   0.26915991   0.08083030
3603.00   0.31315246   0.07960182
3604.00   0.31308207   0.08016702
3605.00   0.35952652   0.08000897
3606.00   0.34621316   0.07934479
3607.00   0.36503705   0.08019909
3608.00   0.32826772   0.08048418
3609.00   0.33064464   0.07993208
3610.00   0.23017044   0.07881507
3611.00   0.20635070   0.08051939
3612.00   0.41780093   0.08721867
3613.00   0.37260437   0.08742344
3614.00   0.40403080   0.08638410
3615.00   0.38475421   0.08485305
3616.00   0.26373500   0.08467433
3617.00   0.47143641   0.08619347
3618.00   0.17750236   0.08381177
3619.00   0.20011088   0.08267416
3620.00   0.30045202   0.08159048
3621.00   0.10882603   0.07796398
3622.00   0.21900046   0.07979210
3623.00   0.27114442   0.08123086
3624.00   0.32987261   0.07852043
3625.00   0.20089349   0.07678831
3626.00   0.18852691   0.07526676
3627.00   0.16452128   0.07669173
3628.00   0.10912082   0.07973858
3629.00   0.33598983   0.08377102
3630.00   0.46696746   0.08662057
3631.00   0.40039665   0.08583347
3632.00   0.21529420   0.08263108
3633.00   0.21656682   0.08261084
3634.00   0.26466405   0.08183233
3635.00   0.40525377   0.08313791
3636.00   0.47344768   0.08528633
3637.00   0.33553711   0.08189111
3638.00   0.14651227   0.07804119
3639.00   0.14803697   0.07839369
3640.00   0.43598700   0.08314452
3641.00   0.56082147   0.08530017
3642.00   0.35261118   0.08252841
3643.00   0.24465434   0.08210777
3644.00   0.26735222   0.08357698
3645.00   0.24281842   0.08267352
3646.00   0.27610785   0.08357747
3647.00   0.32506812   0.09483063
3648.00   0.33815309   0.11354102
3649.00   0.44165829   0.12433303
3650.00   0.40204516   0.11780940
3651.00   0.11867041   0.10228922
3652.00   0.10900565   0.09516125
3653.00   0.20453198   0.09908092
3654.00   0.06970482   0.09966320
3655.00   0.24592076   0.09379467
3656.00   0.40240124   0.08527790
3657.00   0.43246162   0.08032169
3658.00   0.29610413   0.07713674
3659.00   0.22357818   0.07642220
3660.00   0.40046465   0.08153855
3661.00   0.43342853   0.08835614
3662.00   0.26629058   0.09206901
3663.00   0.19202143   0.08693880
3664.00   0.37205645   0.08192064
3665.00   0.32074702   0.07565602
3666.00   0.31203720   0.07177274
3667.00   0.27161095   0.06852546
3668.00   0.19115894   0.06644928
3669.00   0.27886847   0.06820315
3670.00   0.18592480   0.06584714
3671.00   0.32361734   0.06856745
3672.00   0.29999566   0.06816061
3673.00   0.34300134   0.06790319
3674.00   0.27899948   0.06563894
3675.00   0.26144603   0.06395787
3676.00   0.13293372   0.06479663
3677.00   0.31707454   0.06643732
3678.00   0.32896286   0.06469942
3679.00   0.19001712   0.06308425
3680.00   0.18122454   0.06243582
3681.00   0.31543228   0.06277426
3682.00   0.25698125   0.06291917
3683.00   0.28596097   0.06271579
3684.00   0.37649000   0.06326237
3685.00   0.28473607   0.06234901
3686.00   0.21668996   0.06137648
3687.00   0.23807457   0.06064936
3688.00   0.27402475   0.06087151
3689.00   0.26237905   0.06171427
3690.00   0.25456506   0.06319597
3691.00   0.22991025   0.06288204
3692.00   0.21145667   0.06167401
3693.00   0.31851497   0.06184017
3694.00   0.35557976   0.05974844
3695.00   0.25121924   0.05853727
3696.00   0.22410738   0.06043416
3697.00   0.27339181   0.06238273
3698.00   0.25813261   0.06373470
3699.00   0.20793250   0.06299318
3700.00   0.21214426   0.06240669
3701.00   0.28094018   0.06441969
3702.00   0.28374115   0.06387439
3703.00   0.27672648   0.06330709
3704.00   0.10222866   0.06029236
3705.00   0.14595003   0.06004547
3706.00   0.18129243   0.06059324
3707.00   0.13608220   0.05905953
3708.00   0.29942930   0.06014623
3709.00   0.19243619   0.05964858
3710.00   0.17822339   0.05863817
3711.00   0.20820820   0.05884994
3712.00   0.18613480   0.05804605
3713.00   0.15404293   0.05867468
3714.00   0.26658213   0.05801303
3715.00   0.24567230   0.05621025
3716.00   0.34347072   0.05822869
3717.00   0.37354964   0.05778697
3718.00   0.25114438   0.05625628
3719.00   0.25614345   0.05659027
3720.00   0.26748076   0.05713527
3721.00   0.16231202   0.05515607
3722.00   0.17844753   0.05522880
3723.00   0.20489779   0.05582199
3724.00   0.17157209   0.05496030
3725.00   0.22654580   0.05521977
3726.00   0.24108210   0.05531616
3727.00   0.10392126   0.05520941
3728.00   0.20421273   0.05663412
3729.00   0.30083859   0.05836529
3730.00   0.21653111   0.05837607
3731.00   0.35844368   0.06038725
3732.00   0.28726122   0.06103049
3733.00   0.23633346   0.05942496
3734.00   0.30846122   0.05999198
3735.00   0.25102720   0.05881665
3736.00   0.26066729   0.05829107
3737.00   0.33363289   0.06025905
3738.00   0.30959710   0.06159621
3739.00   0.30854210   0.06167335
3740.00   0.45778069   0.06545565
3741.00   0.65069616   0.07171870
3742.00   0.78352123   0.07464847
3743.00   0.87048590   0.07553715
3744.00   0.94693339   0.07793349
3745.00   1.03558958   0.07951097
3746.00   0.94813246   0.07332320
3747.00   0.63055384   0.06370604
3748.00   0.43747953   0.05762163
3749.00   0.43805707   0.05823648
3750.00   0.35136592   0.05726401
3751.00   0.36305544   0.05500336
3752.00   0.44042802   0.05586332
3753.00   0.39673114   0.05689762
3754.00   0.45466390   0.05927263
3755.00   0.48410878   0.05793291
3756.00   0.43606278   0.05626814
3757.00   0.49760431   0.05761820
3758.00   0.56393915   0.05874214
3759.00   0.49838027   0.05617101
3760.00   0.45192060   0.05638896
3761.00   0.39318335   0.05444010
3762.00   0.48074794   0.05474162
3763.00   0.29622960   0.05381297
3764.00   0.47442749   0.05504979
3765.00   0.45810610   0.05504094
3766.00   0.40690333   0.05214970
3767.00   0.35066149   0.05113146
3768.00   0.36562452   0.05212773
3769.00   0.40558714   0.05444298
3770.00   0.29510254   0.05304760
3771.00   0.37360159   0.05459210
3772.00   0.48533431   0.05546438
3773.00   0.35313681   0.05421656
3774.00   0.29309377   0.05347262
3775.00   0.29124081   0.05353070
3776.00   0.25692055   0.05302175
3777.00   0.43089873   0.05400030
3778.00   0.43585792   0.05348428
3779.00   0.29643974   0.05167320
3780.00   0.26571223   0.05237090
3781.00   0.31263417   0.05259509
3782.00   0.41088852   0.05217134
3783.00   0.45901668   0.05227754
3784.00   0.40689182   0.05220777
3785.00   0.45726070   0.05237349
3786.00   0.48709780   0.05211760
3787.00   0.34362170   0.05071627
3788.00   0.22188102   0.05058334
3789.00   0.27755126   0.05238404
3790.00   0.38475391   0.05365662
3791.00   0.43026012   0.05482742
3792.00   0.39269137   0.05523465
3793.00   0.33874065   0.05415889
3794.00   0.36967868   0.05410746
3795.00   0.33585319   0.05324686
3796.00   0.40255988   0.05209178
3797.00   0.43398657   0.05178521
3798.00   0.30977315   0.05080467
3799.00   0.27267522   0.05263675
3800.00   0.34830278   0.05324654
3801.00   0.29583204   0.05130794
3802.00   0.28145999   0.05294327
3803.00   0.36377084   0.05293895
3804.00   0.29439837   0.04983394
3805.00   0.36443526   0.05036829
3806.00   0.43448541   0.05230781
3807.00   0.48120728   0.05238201
3808.00   0.30039346   0.04993562
3809.00   0.30415970   0.04986795
3810.00   0.37629366   0.05021524
3811.00   0.31213319   0.05004290
3812.00   0.27664199   0.05008005
3813.00   0.30273378   0.05200187
3814.00   0.39959994   0.05335118
3815.00   0.30367661   0.05112049
3816.00   0.19246262   0.05029100
3817.00   0.33415356   0.05197197
3818.00   0.40481633   0.05248878
3819.00   0.32963270   0.05206577
3820.00   0.36639619   0.05232632
3821.00   0.37400097   0.05179061
3822.00   0.32982680   0.05166378
3823.00   0.33179069   0.05117256
3824.00   0.34638709   0.05040516
3825.00   0.39829662   0.05251078
3826.00   0.49375424   0.05469769
3827.00   0.45221958   0.05635527
3828.00   0.42956367   0.05824153
3829.00   0.39601654   0.05854141
3830.00   0.37146372   0.05749143
3831.00   0.38112327   0.05642353
3832.00   0.42114636   0.05613293
3833.00   0.44526401   0.05559259
3834.00   0.47900617   0.05544233
3835.00   0.43928519   0.05513633
3836.00   0.30948463   0.05367592
3837.00   0.23997220   0.05248129
3838.00   0.33668250   0.05267040
3839.00   0.41885212   0.05282445
3840.00   0.38613549   0.05291609
3841.00   0.39502403   0.05387799
3842.00   0.38345286   0.05330969
3843.00   0.32473317   0.05181666
3844.00   0.27497217   0.05170419
3845.00   0.40341204   0.05275789
3846.00   0.38908979   0.05143099
3847.00   0.26619998   0.04870177
3848.00   0.22366683   0.04822561
3849.00   0.28057796   0.04814670
3850.00   0.21725482   0.04711767
3851.00   0.18075027   0.04706735
3852.00   0.20173557   0.04711210
3853.00   0.25963026   0.04794671
3854.00   0.13027345   0.04615707
3855.00   0.20399261   0.04628858
3856.00   0.21775924   0.04548927
3857.00   0.26711422   0.04561204
3858.00   0.24422833   0.04581226
3859.00   0.23232108   0.04544335
3860.00   0.26500791   0.04749919
3861.00   0.21188970   0.04685187
3862.00   0.18652914   0.04646285
3863.00   0.35960707   0.04903467
3864.00   0.27894133   0.04839019
3865.00   0.21868142   0.04600387
3866.00   0.31344292   0.04679417
3867.00   0.25972730   0.04638778
3868.00   0.26435870   0.04682325
3869.00   0.31623986   0.04692250
3870.00   0.26479021   0.04541555
3871.00   0.18014549   0.04415239
3872.00   0.13458833   0.04458040
3873.00   0.21811259   0.04804143
3874.00   0.26007101   0.04855738
3875.00   0.27906778   0.04714958
3876.00   0.27076960   0.04615183
3877.00   0.15870565   0.04435535
3878.00   0.16129082   0.04380144
3879.00   0.27659836   0.04612841
3880.00   0.28051698   0.04582502
3881.00   0.15167490   0.04334226
3882.00   0.15367848   0.04383943
3883.00   0.27639431   0.04621235
3884.00   0.33581275   0.04716242
3885.00   0.37727976   0.04694500
3886.00   0.38814166   0.04691259
3887.00   0.34633970   0.04658489
3888.00   0.31156743   0.04616589
3889.00   0.24380118   0.04541804
3890.00   0.21579690   0.04403049
3891.00   0.26914826   0.04395646
3892.00   0.29163367   0.04449766
3893.00   0.30842164   0.04488831
3894.00   0.29446709   0.04481134
3895.00   0.28997743   0.04480071
3896.00   0.25002351   0.04405004
3897.00   0.21195288   0.04419948
3898.00   0.19789198   0.04448141
3899.00   0.24557415   0.04430330
3900.00   0.23595916   0.04407112
3901.00   0.20310354   0.04447851
3902.00   0.20586632   0.04510270
3903.00   0.19393010   0.04536577
3904.00   0.26036605   0.04743777
3905.00   0.28388935   0.05142530
3906.00   0.22804941   0.05336338
3907.00   0.18027914   0.05481141
3908.00   0.24428177   0.05456777
3909.00   0.21735026   0.05281126
3910.00   0.27370155   0.05481296
3911.00   0.35179719   0.05709011
3912.00   0.24037646   0.05704125
3913.00   0.20366144   0.05510039
3914.00   0.19165649   0.05117444
3915.00   0.22169496   0.04889836
3916.00   0.25141120   0.04800121
3917.00   0.31578028   0.04810673
3918.00   0.33364826   0.04749693
3919.00   0.24216589   0.04562239
3920.00   0.30677879   0.04551504
3921.00   0.31805769   0.04498680
3922.00   0.21383305   0.04361658
3923.00   0.20916826   0.04409709
3924.00   0.26594004   0.04526674
3925.00   0.27543169   0.04505645
3926.00   0.23651741   0.04320905
3927.00   0.32822093   0.04423318
3928.00   0.36559314   0.04507801
3929.00   0.27551693   0.04367130
3930.00   0.32018992   0.04420590
3931.00   0.39387646   0.04640911
3932.00   0.32849008   0.04706893
3933.00   0.31158742   0.04745220
3934.00   0.33566207   0.04700858
3935.00   0.29281673   0.04430483
3936.00   0.26797470   0.04204705
3937.00   0.27657390   0.04201689
3938.00   0.30906907   0.04394046
3939.00   0.39168751   0.04606047
3940.00   0.43602717   0.04672530
3941.00   0.39869678   0.04748782
3942.00   0.41440767   0.04934340
3943.00   0.37780499   0.04973566
3944.00   0.36387691   0.04897533
3945.00   0.43627787   0.04797976
3946.00   0.43601733   0.04763133
3947.00   0.42902124   0.04719491
3948.00   0.46569002   0.04602448
3949.00   0.51248604   0.04549216
3950.00   0.40176511   0.04405362
3951.00   0.36245024   0.04355234
3952.00   0.45740727   0.04438743
3953.00   0.49688897   0.04448958
3954.00   0.54639459   0.04598329
3955.00   0.59682256   0.04696530
3956.00   0.51979214   0.04595062
3957.00   0.57421708   0.04611470
3958.00   0.49013481   0.04590956
3959.00   0.60489476   0.04823565
3960.00   0.66941607   0.05053297
3961.00   0.64052552   0.05098636
3962.00   0.63263321   0.04894214
3963.00   0.64799607   0.04739109
3964.00   0.64196068   0.04662344
3965.00   0.72164196   0.04805949
3966.00   0.79258025   0.04915419
3967.00   0.76151395   0.04842985
3968.00   0.76572639   0.04753711
3969.00   0.76913649   0.04750314
3970.00   0.79513270   0.04844182
3971.00   0.81942457   0.04907853
3972.00   0.82600117   0.04959816
3973.00   0.87490827   0.05041787
3974.00   0.91330403   0.05056723
3975.00   0.96292883   0.05089710
3976.00   0.97163957   0.05108879
3977.00   0.90712988   0.05017759
3978.00   0.85485202   0.04986349
3979.00   0.88875777   0.05033011
3980.00   0.90044922   0.04995193
3981.00   0.81067997   0.04866642
3982.00   0.83680028   0.04880045
3983.00   0.88624108   0.04904739
3984.00   0.82229787   0.04801084
3985.00   0.82059091   0.04751581
3986.00   0.82156277   0.04724763
3987.00   0.82398897   0.04787074
3988.00   0.87130547   0.04858264
3989.00   0.87653810   0.04824326
3990.00   0.90892935   0.04876881
3991.00   0.95130706   0.04908315
3992.00   0.91626340   0.04865455
3993.00   0.90772033   0.04887870
3994.00   0.79671383   0.04827071
3995.00   0.83855510   0.04994378
3996.00   0.93214279   0.05151349
3997.00   0.90956038   0.05075527
3998.00   0.87094575   0.04901358
3999.00   0.83848536   0.04861208
4000.00   0.81840301   0.04862446
4001.00   0.84710354   0.04838389
4002.00   0.84423089   0.04868223
4003.00   0.91518390   0.04919891
4004.00   0.88157547   0.04865552
4005.00   0.83962476   0.04795672
4006.00   0.82128078   0.04827608
4007.00   0.93370330   0.05036696
4008.00   0.86694461   0.04959589
4009.00   0.86534256   0.04937159
4010.00   0.89747870   0.05002519
4011.00   0.77137500   0.04825096
4012.00   0.75652456   0.04880420
4013.00   0.78662920   0.04823937
4014.00   0.86848480   0.04827916
4015.00   0.85675257   0.04827560
4016.00   0.80250531   0.04746589
4017.00   0.85254645   0.04908399
4018.00   0.86419761   0.05156977
4019.00   0.89876312   0.05389243
4020.00   0.89939499   0.05530136
4021.00   0.84237742   0.05476762
4022.00   0.88559699   0.05458739
4023.00   0.90507668   0.05486898
4024.00   0.83735889   0.05353884
4025.00   0.86214024   0.05215430
4026.00   0.92932612   0.05114057
4027.00   0.88753223   0.04951100
4028.00   0.82729167   0.04888199
4029.00   0.79125911   0.04919203
4030.00   0.73690766   0.04848994
4031.00   0.73925370   0.04792895
4032.00   0.80673701   0.04802962
4033.00   0.84459054   0.04795537
4034.00   0.80302578   0.04783015
4035.00   0.72521514   0.04714029
4036.00   0.72551399   0.04672007
4037.00   0.76655859   0.04652698
4038.00   0.74122542   0.04567853
4039.00   0.71496373   0.04537765
4040.00   0.70221955   0.04573898
4041.00   0.63909113   0.04574801
4042.00   0.51995158   0.04492557
4043.00   0.55437791   0.04696278
4044.00   0.65256858   0.05903311
4045.00   0.73358691   0.08182422
4046.00   0.62660789   0.09286965
4047.00   0.32629666   0.08033507
4048.00   0.38006127   0.05922103
4049.00   0.38406152   0.04771040
4050.00   0.60807967   0.04652552
4051.00   0.59872305   0.04572538
4052.00   0.57639754   0.04490077
4053.00   0.53976709   0.04606871
4054.00   0.49816102   0.04685398
4055.00   0.47283503   0.04530976
4056.00   0.45965695   0.04273847
4057.00   0.49615920   0.04264235
4058.00   0.48400813   0.04247952
4059.00   0.49496788   0.04204861
4060.00   0.52605778   0.04212617
4061.00   0.49034697   0.04238598
4062.00   0.48755452   0.04190075
4063.00   0.50707471   0.04226102
4064.00   0.51103735   0.04278343
4065.00   0.54189610   0.04291546
4066.00   0.56925261   0.04314205
4067.00   0.58968997   0.04386849
4068.00   0.62120974   0.04403567
4069.00   0.68508810   0.04455148
4070.00   0.70479548   0.04422792
4071.00   0.69266242   0.04373198
4072.00   0.70933312   0.04405964
4073.00   0.73020113   0.04418657
4074.00   0.74179536   0.04458161
4075.00   0.82230937   0.04721825
4076.00   0.95376575   0.05238372
4077.00   0.93625998   0.05585232
4078.00   0.85296410   0.05401090
4079.00   0.78191501   0.04931568
4080.00   0.74625444   0.04754583
4081.00   0.81082112   0.04901861
4082.00   0.83859020   0.04966618
4083.00   0.84959829   0.04842395
4084.00   0.83971637   0.04695119
4085.00   0.77371138   0.04712022
4086.00   0.82314837   0.04826234
4087.00   0.89069748   0.04800443
4088.00   0.86353147   0.04659840
4089.00   0.85225165   0.04572561
4090.00   0.93459314   0.04590951
4091.00   0.99028397   0.04654891
4092.00   1.00716817   0.04675442
4093.00   1.00315630   0.04731588
4094.00   1.01722431   0.04717113
4095.00   1.04322541   0.04720152
4096.00   1.14528310   0.04823883
4097.00   1.15502691   0.04861925
4098.00   1.15788317   0.04911971
4099.00   1.15299630   0.04910152
4100.00   1.16162062   0.04878934
4101.00   1.15952492   0.04841488
4102.00   1.20035911   0.04765612
4103.00   1.12217617   0.04667472
4104.00   1.13729560   0.04731787
4105.00   1.22663641   0.04799872
4106.00   1.21736169   0.04811656
4107.00   1.20738280   0.04872978
4108.00   1.10855317   0.04822570
4109.00   1.19354105   0.04831682
4110.00   1.18494666   0.04779503
4111.00   1.22842574   0.04845859
4112.00   1.28484571   0.04884275
4113.00   1.23881686   0.04799748
4114.00   1.21481359   0.04773603
4115.00   1.12912607   0.04725694
4116.00   1.14708054   0.04725708
4117.00   1.24852085   0.04798434
4118.00   1.21599841   0.04721935
4119.00   1.21771562   0.04743153
4120.00   1.21698177   0.04741113
4121.00   1.23171484   0.04748653
4122.00   1.22862148   0.04739710
4123.00   1.26522171   0.04785082
4124.00   1.20512366   0.04740268
4125.00   1.17101121   0.04687682
4126.00   1.22689056   0.04772916
4127.00   1.22134829   0.04790137
4128.00   1.18232763   0.04695653
4129.00   1.16165495   0.04648137
4130.00   1.11282539   0.04647289
4131.00   1.08051181   0.04710135
4132.00   1.10220933   0.04835351
4133.00   1.08355510   0.04825336
4134.00   1.08343637   0.04719559
4135.00   1.03124559   0.04601846
4136.00   1.00502169   0.04545207
4137.00   1.00551188   0.04489119
4138.00   0.94073528   0.04461690
4139.00   0.98944598   0.04619066
4140.00   0.98035222   0.04639990
4141.00   0.97397757   0.04505140
4142.00   0.99664950   0.04408402
4143.00   0.92369437   0.04293603
4144.00   0.81122780   0.04158138
4145.00   0.81881219   0.04174257
4146.00   0.88264179   0.04254117
4147.00   0.83006418   0.04177777
4148.00   0.75681955   0.04063731
4149.00   0.82290924   0.04103279
4150.00   0.77006739   0.04153946
4151.00   0.75441277   0.04322840
4152.00   0.73615974   0.04392365
4153.00   0.72945982   0.04267753
4154.00   0.66617471   0.04083358
4155.00   0.67288029   0.04100535
4156.00   0.70549685   0.04101792
4157.00   0.73914301   0.04075036
4158.00   0.73980153   0.04087060
4159.00   0.70016569   0.04047678
4160.00   0.69553047   0.04085314
4161.00   0.78177494   0.04219142
4162.00   0.75692576   0.04209704
4163.00   0.76071459   0.04321617
4164.00   0.80483431   0.04566688
4165.00   0.80322582   0.04654878
4166.00   0.87894887   0.04533400
4167.00   0.81714535   0.04332386
4168.00   0.78535020   0.04302432
4169.00   0.83531034   0.04292372
4170.00   0.88582778   0.04303375
4171.00   0.87520581   0.04303111
4172.00   0.88832551   0.04296437
4173.00   0.93505865   0.04291700
4174.00   0.93142712   0.04268070
4175.00   0.94559228   0.04263178
4176.00   0.94781852   0.04262337
4177.00   0.90281963   0.04270652
4178.00   0.84314030   0.04239443
4179.00   0.78332663   0.04157823
4180.00   0.77327871   0.04078756
4181.00   0.76026553   0.03984671
4182.00   0.73171812   0.03924699
4183.00   0.66814780   0.03842760
4184.00   0.60955966   0.03806071
4185.00   0.68556952   0.03918816
4186.00   0.67061627   0.03893195
4187.00   0.56463867   0.03768539
4188.00   0.58343065   0.03758999
4189.00   0.73045462   0.03985380
4190.00   0.67897213   0.03950066
4191.00   0.57726228   0.03674631
4192.00   0.59390849   0.03786680
4193.00   0.58543289   0.03767164
4194.00   0.61914521   0.03771548
4195.00   0.66043770   0.03756053
4196.00   0.60125703   0.03608514
4197.00   0.58169967   0.03589130
4198.00   0.57054323   0.03608581
4199.00   0.56767726   0.03604864
4200.00   0.57277310   0.03633541
4201.00   0.58491915   0.03667760
4202.00   0.60235333   0.03694248
4203.00   0.57631880   0.03675824
4204.00   0.54044658   0.03603611
4205.00   0.57747680   0.03661342
4206.00   0.59259629   0.03710011
4207.00   0.52692580   0.03675177
4208.00   0.54310322   0.03724278
4209.00   0.57922804   0.03737098
4210.00   0.59068334   0.03759411
4211.00   0.56068987   0.03759092
4212.00   0.55326390   0.03738705
4213.00   0.58730263   0.03702592
4214.00   0.55118656   0.03636683
4215.00   0.55114144   0.03677441
4216.00   0.60450703   0.03734870
4217.00   0.60381448   0.03697161
4218.00   0.58550960   0.03654911
4219.00   0.59575349   0.03665949
4220.00   0.61506659   0.03695975
4221.00   0.61197585   0.03686853
4222.00   0.59223133   0.03697617
4223.00   0.63201624   0.03734922
4224.00   0.68325084   0.03757091
4225.00   0.65450186   0.03748006
4226.00   0.65693277   0.03744554
4227.00   0.69273812   0.03772953
4228.00   0.71898788   0.03810613
4229.00   0.77118230   0.03864247
4230.00   0.76056617   0.03914359
4231.00   0.76192278   0.03990179
4232.00   0.79711843   0.04023267
4233.00   0.76608002   0.03972207
4234.00   0.75633472   0.03964970
4235.00   0.84047639   0.04023470
4236.00   0.92615604   0.04138486
4237.00   0.88873905   0.04206622
4238.00   0.90621889   0.04273562
4239.00   0.96418172   0.04262459
4240.00   0.99953508   0.04213728
4241.00   0.95147192   0.04092500
4242.00   1.01175642   0.04107838
4243.00   0.99685824   0.04118650
4244.00   0.97868532   0.04191834
4245.00   0.95596558   0.04479518
4246.00   0.99537331   0.04898736
4247.00   0.98458326   0.04806305
4248.00   0.97747654   0.04462149
4249.00   0.89225721   0.04188771
4250.00   0.98318368   0.04218837
4251.00   1.02014947   0.04173036
4252.00   0.96786743   0.04114641
4253.00   0.94700074   0.04081835
4254.00   0.93894857   0.04074854
4255.00   0.89354688   0.04023675
4256.00   0.93514061   0.04076994
4257.00   0.82290494   0.03961105
4258.00   0.79385412   0.03916824
4259.00   0.73130751   0.03847204
4260.00   0.74335563   0.03836809
4261.00   0.73380852   0.03773282
4262.00   0.71547812   0.03736377
4263.00   0.67415452   0.03711124
4264.00   0.59014493   0.03610714
4265.00   0.57150644   0.03575001
4266.00   0.60403764   0.03628389
4267.00   0.62626654   0.03630099
4268.00   0.59408361   0.03584292
4269.00   0.50355971   0.03465387
4270.00   0.49608573   0.03435981
4271.00   0.51274747   0.03470976
4272.00   0.52542174   0.03506566
4273.00   0.48167256   0.03465114
4274.00   0.41766250   0.03364086
4275.00   0.47277045   0.03449766
4276.00   0.55465698   0.03597867
4277.00   0.52501094   0.03553585
4278.00   0.42186272   0.03413627
4279.00   0.41761672   0.03374664
4280.00   0.44446224   0.03371738
4281.00   0.44384146   0.03391294
4282.00   0.41975650   0.03418271
4283.00   0.42008451   0.03423497
4284.00   0.40916643   0.03374737
4285.00   0.40653521   0.03325615
4286.00   0.34127158   0.03297837
4287.00   0.34403828   0.03281078
4288.00   0.35665104   0.03229382
4289.00   0.46688530   0.03285261
4290.00   0.38168123   0.03242864
4291.00   0.41856968   0.03364862
4292.00   0.38100171   0.03292019
4293.00   0.33583450   0.03219253
4294.00   0.37734175   0.03333823
4295.00   0.44005647   0.03405664
4296.00   0.42236087   0.03354654
4297.00   0.36184987   0.03290282
4298.00   0.42799756   0.03327476
4299.00   0.46580172   0.03369214
4300.00   0.44032004   0.03325770
4301.00   0.44178736   0.03307433
4302.00   0.42792261   0.03282694
4303.00   0.40382165   0.03359740
4304.00   0.37831962   0.03384423
4305.00   0.37566656   0.03380599
4306.00   0.45141244   0.03492129
4307.00   0.47812957   0.03496869
4308.00   0.45658475   0.03460323
4309.00   0.39329869   0.03420662
4310.00   0.39411476   0.03415630
4311.00   0.45396650   0.03481454
4312.00   0.50260335   0.03714415
4313.00   0.53418314   0.04027082
4314.00   0.50129759   0.04025191
4315.00   0.46421540   0.03794022
4316.00   0.49280444   0.03637284
4317.00   0.51757264   0.03547979
4318.00   0.52321589   0.03569871
4319.00   0.53716093   0.03748655
4320.00   0.55797917   0.03944705
4321.00   0.57730180   0.03936185
4322.00   0.59026051   0.03767750
4323.00   0.59003234   0.03697808
4324.00   0.63599151   0.03849928
4325.00   0.69322407   0.03982242
4326.00   0.67145211   0.03857516
4327.00   0.67611921   0.03737355
4328.00   0.70321566   0.03741401
4329.00   0.66871178   0.03705322
4330.00   0.65717751   0.03712975
4331.00   0.72772974   0.03782502
4332.00   0.74948364   0.03763628
4333.00   0.76308185   0.03783344
4334.00   0.77976233   0.03811169
4335.00   0.72022766   0.03773686
4336.00   0.75621247   0.03843087
4337.00   0.80820042   0.03913060
4338.00   0.79691327   0.03929917
4339.00   0.81999350   0.03987069
4340.00   0.81326383   0.03955942
4341.00   0.80033487   0.03899252
4342.00   0.74875641   0.03899037
4343.00   0.77653033   0.03931858
4344.00   0.73361015   0.03918282
4345.00   0.68473423   0.03934633
4346.00   0.75670803   0.04111593
4347.00   0.77462769   0.04197559
4348.00   0.76004076   0.04182395
4349.00   0.71136343   0.04029495
4350.00   0.78442442   0.03976400
4351.00   0.73743761   0.03902692
4352.00   0.67962015   0.03841007
4353.00   0.67605698   0.03866519
4354.00   0.73008549   0.03891485
4355.00   0.78035283   0.04119051
4356.00   0.84753627   0.05944226
4357.00   0.71612900   0.08689963
4358.00   0.55366760   0.09875298
4359.00   0.47564858   0.08608034
4360.00   0.62589240   0.06455092
4361.00   0.64805806   0.04926792
4362.00   0.60684580   0.04216782
4363.00   0.57831818   0.03966454
4364.00   0.50939852   0.03832797
4365.00   0.53760296   0.03832388
4366.00   0.60267359   0.03845150
4367.00   0.64142799   0.03818269
4368.00   0.62086236   0.03790407
4369.00   0.51844853   0.03703242
4370.00   0.52891862   0.03704045
4371.00   0.58197004   0.03736131
4372.00   0.56463236   0.03770471
4373.00   0.57776344   0.03912197
4374.00   0.58068311   0.03986151
4375.00   0.62736392   0.03975259
4376.00   0.70182765   0.03930936
4377.00   0.63884550   0.03788843
4378.00   0.60073006   0.03661464
4379.00   0.69508243   0.03705893
4380.00   0.67137992   0.03726678
4381.00   0.71147281   0.03793436
4382.00   0.72468555   0.03785148
4383.00   0.69995165   0.03742881
4384.00   0.68980694   0.03722923
4385.00   0.64691305   0.03684156
4386.00   0.70792300   0.03718993
4387.00   0.70524406   0.03711896
4388.00   0.67884141   0.03710939
4389.00   0.74128628   0.03759789
4390.00   0.81849045   0.03843280
4391.00   0.76277351   0.03829196
4392.00   0.73797423   0.03772619
4393.00   0.79666066   0.03834609
4394.00   0.74748409   0.03807553
4395.00   0.72696728   0.03742270
4396.00   0.78793824   0.03779126
4397.00   0.75802237   0.03775795
4398.00   0.77418923   0.03835507
4399.00   0.87544030   0.03990891
4400.00   0.77905995   0.03995853
4401.00   0.80935997   0.03967758
4402.00   0.88235062   0.03970656
4403.00   0.86838454   0.03887759
4404.00   0.88923186   0.03896025
4405.00   0.85728168   0.03887037
4406.00   0.82868433   0.03864322
4407.00   0.83903164   0.03887615
4408.00   0.84011769   0.03921375
4409.00   0.88815027   0.03948511
4410.00   0.88335472   0.03938227
4411.00   0.80530256   0.03909828
4412.00   0.79441458   0.03891824
4413.00   0.82681036   0.03885126
4414.00   0.80860490   0.03938973
4415.00   0.78564125   0.04001880
4416.00   0.80342627   0.03974240
4417.00   0.79237843   0.03858669
4418.00   0.73896533   0.03745185
4419.00   0.72221684   0.03724768
4420.00   0.75920904   0.03785899
4421.00   0.79595500   0.03831462
4422.00   0.77328831   0.03791563
4423.00   0.74525905   0.03733519
4424.00   0.75240630   0.03705700
4425.00   0.71904093   0.03679601
4426.00   0.73932844   0.03736140
4427.00   0.80470544   0.03766524
4428.00   0.76781958   0.03688512
4429.00   0.75338697   0.03711913
4430.00   0.79792941   0.03796089
4431.00   0.76861614   0.03787621
4432.00   0.70169938   0.03715501
4433.00   0.68922335   0.03662594
4434.00   0.75038171   0.03668064
4435.00   0.79521638   0.03679899
4436.00   0.75595874   0.03675650
4437.00   0.78633797   0.03737745
4438.00   0.75149888   0.03746199
4439.00   0.74636567   0.03736300
4440.00   0.82808697   0.03763317
4441.00   0.80416459   0.03718504
4442.00   0.75604022   0.03679543
4443.00   0.74584401   0.03655888
4444.00   0.72119814   0.03667133
4445.00   0.72462523   0.03692476
4446.00   0.85302538   0.03817148
4447.00   0.82147580   0.03738376
4448.00   0.79486495   0.03664617
4449.00   0.79732329   0.03702049
4450.00   0.80797571   0.03711508
4451.00   0.80581909   0.03697712
4452.00   0.75577629   0.03671556
4453.00   0.86272460   0.03771990
4454.00   0.90717250   0.03765606
4455.00   0.90088141   0.03748330
4456.00   0.92648494   0.03812143
4457.00   0.97125089   0.03882860
4458.00   0.98439765   0.03929863
4459.00   0.91881913   0.03846137
4460.00   0.89915413   0.03800737
4461.00   0.93613881   0.03837829
4462.00   1.02978420   0.03929363
4463.00   1.02847636   0.03920922
4464.00   0.94598824   0.03842273
4465.00   0.94643193   0.03848599
4466.00   0.98873454   0.03874967
4467.00   1.01630116   0.03882240
4468.00   0.96743506   0.03821569
4469.00   0.87957817   0.03732909
4470.00   0.88406092   0.03755033
4471.00   0.93495160   0.03789294
4472.00   0.93535280   0.03764183
4473.00   0.89313948   0.03738691
4474.00   0.86236238   0.03701220
4475.00   0.82403737   0.03648881
4476.00   0.80930543   0.03634387
4477.00   0.82515788   0.03658846
4478.00   0.84550756   0.03704011
4479.00   0.79610652   0.03643104
4480.00   0.74691975   0.03585951
4481.00   0.81233495   0.03631034
4482.00   0.78001946   0.03609226
4483.00   0.74244493   0.03606798
4484.00   0.76432240   0.03594067
4485.00   0.81136215   0.03648587
4486.00   0.80437559   0.03658524
4487.00   0.78456903   0.03622539
4488.00   0.70180047   0.03565762
4489.00   0.75651228   0.03595833
4490.00   0.79937774   0.03634930
4491.00   0.79801196   0.03641431
4492.00   0.78182852   0.03645791
4493.00   0.69847411   0.03638227
4494.00   0.72385979   0.03656141
4495.00   0.80579668   0.03675708
4496.00   0.78391349   0.03630726
4497.00   0.71323413   0.03578420
4498.00   0.71759677   0.03583629
4499.00   0.72233391   0.03570923
4500.00   0.70032138   0.03533284
4501.00   0.67197073   0.03475924
4502.00   0.63854367   0.03429797
4503.00   0.62858707   0.03427624
4504.00   0.60461050   0.03413163
4505.00   0.62599248   0.03406724
4506.00   0.61236334   0.03380029
4507.00   0.62510538   0.03368211
4508.00   0.64924347   0.03368727
4509.00   0.58453828   0.03314614
4510.00   0.54098189   0.03293217
4511.00   0.60180342   0.03354479
4512.00   0.57917500   0.03333891
4513.00   0.55773616   0.03318005
4514.00   0.59267408   0.03328215
4515.00   0.58548665   0.03288716
4516.00   0.60257566   0.03300320
4517.00   0.61150026   0.03315835
4518.00   0.56325853   0.03265007
4519.00   0.55867773   0.03255173
4520.00   0.58390951   0.03314822
4521.00   0.52531159   0.03275455
4522.00   0.50757962   0.03218964
4523.00   0.59776431   0.03286735
4524.00   0.57268947   0.03218446
4525.00   0.55168378   0.03214540
4526.00   0.56030113   0.03253411
4527.00   0.52459985   0.03222246
4528.00   0.57005167   0.03280974
4529.00   0.57289994   0.03293275
4530.00   0.55889642   0.03297286
4531.00   0.56310076   0.03259583
4532.00   0.56977409   0.03281442
4533.00   0.51179194   0.03275356
4534.00   0.47482613   0.03206209
4535.00   0.53652489   0.03229055
4536.00   0.61187154   0.03292321
4537.00   0.65864372   0.03340334
4538.00   0.62412524   0.03291859
4539.00   0.59976691   0.03224126
4540.00   0.59988105   0.03228442
4541.00   0.58423960   0.03248522
4542.00   0.56406748   0.03234586
4543.00   0.58725947   0.03287066
4544.00   0.57897508   0.03325087
4545.00   0.56664342   0.03327750
4546.00   0.57491720   0.03309847
4547.00   0.59536052   0.03281822
4548.00   0.62582189   0.03308726
4549.00   0.59646606   0.03294399
4550.00   0.61766982   0.03291307
4551.00   0.63680220   0.03301263
4552.00   0.60227877   0.03268261
4553.00   0.64330149   0.03286408
4554.00   0.66233373   0.03280012
4555.00   0.69988221   0.03317364
4556.00   0.72640789   0.03380138
4557.00   0.73234659   0.03420524
4558.00   0.76425874   0.03455311
4559.00   0.77552307   0.03433575
4560.00   0.80915898   0.03445567
4561.00   0.81064773   0.03433146
4562.00   0.79343969   0.03413148
4563.00   0.81373560   0.03425963
4564.00   0.85875964   0.03483434
4565.00   0.86896592   0.03493372
4566.00   0.85228282   0.03466867
4567.00   0.88411766   0.03530332
4568.00   0.90394658   0.03539238
4569.00   0.92619807   0.03536956
4570.00   0.97795153   0.03595894
4571.00   1.01791215   0.03617924
4572.00   1.10118711   0.03683461
4573.00   1.12186027   0.03747555
4574.00   1.07388198   0.03717028
4575.00   1.12274587   0.03735567
4576.00   1.15399873   0.03772502
4577.00   1.17982483   0.03794248
4578.00   1.25721705   0.03866737
4579.00   1.27413809   0.03928155
4580.00   1.31084323   0.03970966
4581.00   1.41089976   0.04023349
4582.00   1.44324636   0.04054506
4583.00   1.43612826   0.04039035
4584.00   1.47798562   0.04060820
4585.00   1.49630702   0.04092830
4586.00   1.52617013   0.04114285
4587.00   1.59264672   0.04188573
4588.00   1.67189932   0.04284729
4589.00   1.74530661   0.04297538
4590.00   1.69040239   0.04227267
4591.00   1.65818846   0.04223131
4592.00   1.69806123   0.04253275
4593.00   1.65566742   0.04212342
4594.00   1.64454186   0.04200097
4595.00   1.66239715   0.04218239
4596.00   1.63566959   0.04189710
4597.00   1.62603712   0.04159995
4598.00   1.60432112   0.04132745
4599.00   1.55563819   0.04102660
4600.00   1.57395315   0.04091674
4601.00   1.61435902   0.04109199
4602.00   1.57913792   0.04088776
4603.00   1.54537153   0.04041445
4604.00   1.51021993   0.04027314
4605.00   1.44781709   0.03972179
4606.00   1.48924434   0.03981845
4607.00   1.46518362   0.03971402
4608.00   1.42794514   0.03948215
4609.00   1.43528819   0.03967138
4610.00   1.37756431   0.03924377
4611.00   1.32819033   0.03862064
4612.00   1.31522572   0.03824423
4613.00   1.34793651   0.03838187
4614.00   1.38045657   0.03846811
4615.00   1.34486866   0.03821747
4616.00   1.31178570   0.03818832
4617.00   1.32414210   0.03812677
4618.00   1.35026944   0.03818960
4619.00   1.34141421   0.03818622
4620.00   1.36137366   0.03853480
4621.00   1.37860298   0.03863038
4622.00   1.37015426   0.03855091
4623.00   1.41121757   0.03895378
4624.00   1.47047746   0.03937091
4625.00   1.52051222   0.03974924
4626.00   1.50264347   0.03969356
4627.00   1.42138112   0.03916343
4628.00   1.44911575   0.03935962
4629.00   1.56082630   0.04001580
4630.00   1.57177567   0.04009204
4631.00   1.55974114   0.04030873
4632.00   1.52745533   0.04017467
4633.00   1.46067536   0.03955889
4634.00   1.50863957   0.03986140
4635.00   1.57049882   0.04032348
4636.00   1.63181603   0.04088303
4637.00   1.52090704   0.04005688
4638.00   1.50077403   0.03977702
4639.00   1.50008893   0.03955169
4640.00   1.48168337   0.03940398
4641.00   1.47130466   0.03927295
4642.00   1.53175569   0.03974561
4643.00   1.52622485   0.03994236
4644.00   1.49365711   0.03951981
4645.00   1.42788815   0.03896246
4646.00   1.44236326   0.03882788
4647.00   1.44173384   0.03909481
4648.00   1.40964389   0.03885256
4649.00   1.44132340   0.03903076
4650.00   1.46399176   0.03936155
4651.00   1.41411746   0.03908973
4652.00   1.43496180   0.03911490
4653.00   1.45939934   0.03900382
4654.00   1.45574081   0.03895947
4655.00   1.44466615   0.03919726
4656.00   1.44411063   0.03930634
4657.00   1.43292987   0.03931259
4658.00   1.42219234   0.03949370
4659.00   1.44671285   0.03986771
4660.00   1.49872005   0.04030018
4661.00   1.55659199   0.04072596
4662.00   1.55184138   0.04087036
4663.00   1.51576662   0.04082958
4664.00   1.55548108   0.04108230
4665.00   1.57601488   0.04119422
4666.00   1.52900302   0.04111599
4667.00   1.52241051   0.04146344
4668.00   1.53312480   0.04163802
4669.00   1.56574905   0.04180084
4670.00   1.60372221   0.04230712
4671.00   1.57316029   0.04212986
4672.00   1.59416211   0.04209339
4673.00   1.63474488   0.04234161
4674.00   1.62994838   0.04198118
4675.00   1.55691338   0.04135631
4676.00   1.56980312   0.04123729
4677.00   1.62362564   0.04143484
4678.00   1.54299963   0.04068774
4679.00   1.48221135   0.04007112
4680.00   1.53343689   0.04036921
4681.00   1.58765388   0.04105194
4682.00   1.61252236   0.04107007
4683.00   1.57054698   0.04040243
4684.00   1.52472293   0.03994468
4685.00   1.53897464   0.04009256
4686.00   1.50140893   0.03997649
4687.00   1.52688158   0.03998573
4688.00   1.54943371   0.03983863
4689.00   1.53673816   0.03976771
4690.00   1.46702838   0.03935780
4691.00   1.50104201   0.03955254
4692.00   1.46871626   0.03940751
4693.00   1.38058937   0.03880542
4694.00   1.38686407   0.03872842
4695.00   1.42927969   0.03900465
4696.00   1.47151732   0.03924173
4697.00   1.44223726   0.03882614
4698.00   1.42812693   0.03854893
4699.00   1.45484996   0.03863020
4700.00   1.45755625   0.03857978
4701.00   1.38783312   0.03820309
4702.00   1.39667892   0.03830033
4703.00   1.46037686   0.03884115
4704.00   1.46601558   0.03904187
4705.00   1.43288302   0.03869952
4706.00   1.36997581   0.03820655
4707.00   1.38287890   0.03856064
4708.00   1.36859119   0.03862150
4709.00   1.34473777   0.03856534
4710.00   1.39945960   0.03886572
4711.00   1.37205386   0.03833891
4712.00   1.31938314   0.03775344
4713.00   1.30798423   0.03768490
4714.00   1.30901861   0.03770319
4715.00   1.34361422   0.03769386
4716.00   1.32987630   0.03742798
4717.00   1.29410601   0.03716039
4718.00   1.28359377   0.03708884
4719.00   1.33852994   0.03752039
4720.00   1.33445275   0.03750818
4721.00   1.26671433   0.03689845
4722.00   1.27449453   0.03695382
4723.00   1.33718431   0.03757739
4724.00   1.38584840   0.03796808
4725.00   1.37362254   0.03789285
4726.00   1.35312617   0.03790653
4727.00   1.42959094   0.03892965
4728.00   1.44591272   0.04023457
4729.00   1.36403346   0.04044260
4730.00   1.43374729   0.04022785
4731.00   1.49278784   0.03979866
4732.00   1.40755653   0.03891486
4733.00   1.42484748   0.03972682
4734.00   1.40571153   0.04046236
4735.00   1.45332503   0.04049659
4736.00   1.50032377   0.04094459
4737.00   1.40230846   0.04076738
4738.00   1.41801691   0.04083007
4739.00   1.43366301   0.04089587
4740.00   1.46608961   0.04172026
4741.00   1.43506539   0.04204649
4742.00   1.45781291   0.04227490
4743.00   1.40986252   0.04229835
4744.00   1.38609123   0.04233233
4745.00   1.37341547   0.04096716
4746.00   1.39164162   0.03963473
4747.00   1.35860217   0.03831378
4748.00   1.33397877   0.03770234
4749.00   1.38289583   0.03823208
4750.00   1.38579834   0.03831282
4751.00   1.37156463   0.03842696
4752.00   1.37602842   0.03906772
4753.00   1.34223139   0.03923109
4754.00   1.32135534   0.03879335
4755.00   1.31750917   0.03796840
4756.00   1.29533887   0.03715732
4757.00   1.29011226   0.03694399
4758.00   1.29727161   0.03693720
4759.00   1.33081770   0.03701463
4760.00   1.35050988   0.03708784
4761.00   1.29620290   0.03655412
4762.00   1.22913539   0.03581413
4763.00   1.21010697   0.03556270
4764.00   1.25234830   0.03587420
4765.00   1.27185035   0.03614354
4766.00   1.20153165   0.03562052
4767.00   1.14033604   0.03501728
4768.00   1.16290927   0.03492367
4769.00   1.15502036   0.03483669
4770.00   1.16674173   0.03503235
4771.00   1.15441275   0.03494468
4772.00   1.11565006   0.03447663
4773.00   1.10150909   0.03419938
4774.00   1.11291683   0.03419454
4775.00   1.11061573   0.03415532
4776.00   1.06546175   0.03383159
4777.00   1.00007796   0.03355570
4778.00   0.98245347   0.03397544
4779.00   0.99013710   0.03441860
4780.00   0.94941175   0.03400570
4781.00   0.88061070   0.03288986
4782.00   0.85162860   0.03190376
4783.00   0.84646457   0.03144977
4784.00   0.78885567   0.03056080
4785.00   0.77394396   0.03027730
4786.00   0.74299681   0.03009503
4787.00   0.73770982   0.03014525
4788.00   0.69821930   0.02944873
4789.00   0.62920749   0.02873654
4790.00   0.64673471   0.02914482
4791.00   0.64825463   0.02910683
4792.00   0.64913404   0.02896905
4793.00   0.68033034   0.02923297
4794.00   0.60896826   0.02830974
4795.00   0.54576880   0.02729908
4796.00   0.54105741   0.02736242
4797.00   0.51920903   0.02716386
4798.00   0.51997060   0.02693217
4799.00   0.51431060   0.02694952
4800.00   0.49206099   0.02683579
4801.00   0.49032453   0.02668940
4802.00   0.48730254   0.02652792
4803.00   0.46849608   0.02621185
4804.00   0.44639465   0.02587341
4805.00   0.46323925   0.02610693
4806.00   0.49355224   0.02650493
4807.00   0.45845991   0.02618432
4808.00   0.43588674   0.02601770
4809.00   0.44578770   0.02596571
4810.00   0.43591657   0.02560183
4811.00   0.46046743   0.02575395
4812.00   0.44126135   0.02568909
4813.00   0.40279165   0.02567704
4814.00   0.44013318   0.02634844
4815.00   0.42585865   0.02640361
4816.00   0.42854601   0.02615510
4817.00   0.45423886   0.02629725
4818.00   0.45805976   0.02647655
4819.00   0.46059567   0.02653309
4820.00   0.41832107   0.02615382
4821.00   0.46005470   0.02693296
4822.00   0.48506397   0.02715148
4823.00   0.48159531   0.02720051
4824.00   0.49701673   0.02748130
4825.00   0.50199527   0.02739521
4826.00   0.50789964   0.02762185
4827.00   0.54100060   0.02826002
4828.00   0.55643731   0.02821057
4829.00   0.51935005   0.02771343
4830.00   0.53745079   0.02801439
4831.00   0.58234227   0.02834092
4832.00   0.54508972   0.02842277
4833.00   0.58262646   0.02924526
4834.00   0.55897778   0.02893263
4835.00   0.52225924   0.02848543
4836.00   0.65232587   0.02876724
4837.00   0.68668431   0.02935703
4838.00   0.64410752   0.02977397
4839.00   0.69559163   0.03071725
4840.00   0.71070838   0.03135664
4841.00   0.73931730   0.03160392
4842.00   0.85367936   0.03228602
4843.00   0.92121816   0.03234373
4844.00   0.95397037   0.03237224
4845.00   1.02449214   0.03314384
4846.00   1.03250134   0.03348126
4847.00   1.08322287   0.03416887
4848.00   1.16703355   0.03509355
4849.00   1.23742080   0.03556743
4850.00   1.31660235   0.03612216
4851.00   1.36625338   0.03667488
4852.00   1.43011391   0.03724690
4853.00   1.46661437   0.03766890
4854.00   1.46258938   0.03764932
4855.00   1.52764058   0.03791280
4856.00   1.56385911   0.03817314
4857.00   1.59909546   0.03849139
4858.00   1.65993595   0.03871917
4859.00   1.68607879   0.03885044
4860.00   1.71859932   0.03949264
4861.00   1.70665681   0.03973465
4862.00   1.75392091   0.04012726
4863.00   1.80944765   0.04051019
4864.00   1.80370057   0.04027737
4865.00   1.76900578   0.03980962
4866.00   1.84421861   0.04048056
4867.00   1.88011110   0.04066657
4868.00   1.81292260   0.04023335
4869.00   1.79286993   0.04037485
4870.00   1.85017562   0.04067964
4871.00   1.84223866   0.04049300
4872.00   1.80585241   0.04008191
4873.00   1.83320987   0.04025340
4874.00   1.84068477   0.04032328
4875.00   1.79584277   0.03972859
4876.00   1.73533058   0.03924695
4877.00   1.73093295   0.03942924
4878.00   1.80476522   0.04014355
4879.00   1.77330804   0.03994511
4880.00   1.73102641   0.03975337
4881.00   1.74347961   0.03986697
4882.00   1.85074401   0.04119119
4883.00   1.79043484   0.04128301
4884.00   1.65738893   0.03985267
4885.00   1.51798356   0.03805582
4886.00   1.50106692   0.03728067
4887.00   1.46353233   0.03673388
4888.00   1.36328244   0.03571801
4889.00   1.37673485   0.03563962
4890.00   1.37339032   0.03564059
4891.00   1.28696442   0.03491508
4892.00   1.25606859   0.03458171
4893.00   1.22824860   0.03435505
4894.00   1.17374158   0.03406234
4895.00   1.14640760   0.03375428
4896.00   1.10661507   0.03323683
4897.00   1.06399369   0.03286844
4898.00   1.06496692   0.03261092
4899.00   1.06788349   0.03251080
4900.00   1.03598583   0.03235233
4901.00   1.01849258   0.03216798
4902.00   1.01353216   0.03201648
4903.00   0.97361892   0.03138641
4904.00   0.96870482   0.03111616
4905.00   1.02782130   0.03197450
4906.00   1.05221379   0.03243845
4907.00   1.06494951   0.03235808
4908.00   1.06372714   0.03226771
4909.00   1.03650475   0.03223019
4910.00   1.07690859   0.03275316
4911.00   1.13356602   0.03308047
4912.00   1.18853569   0.03355202
4913.00   1.19457674   0.03371921
4914.00   1.19623518   0.03380438
4915.00   1.21640527   0.03409792
4916.00   1.27879786   0.03496459
4917.00   1.33475769   0.03554557
4918.00   1.36806381   0.03550191
4919.00   1.40675104   0.03577504
4920.00   1.44310856   0.03612719
4921.00   1.52177119   0.03656767
4922.00   1.57368338   0.03705335
4923.00   1.62765980   0.03764312
4924.00   1.63127232   0.03757822
4925.00   1.67810380   0.03780752
4926.00   1.72020662   0.03787784
4927.00   1.71222782   0.03821787
4928.00   1.83342755   0.03944516
4929.00   1.78603792   0.03857558
4930.00   1.84284091   0.03889491
4931.00   1.90415323   0.03932713
4932.00   1.90259218   0.03935681
4933.00   1.89981699   0.03936561
4934.00   1.92159963   0.03966552
4935.00   1.96617901   0.04004257
4936.00   1.93845212   0.03978249
4937.00   1.91705894   0.03966677
4938.00   1.98451078   0.04012530
4939.00   2.02576709   0.04037757
4940.00   2.03695607   0.04049122
4941.00   2.02158546   0.04035193
4942.00   1.93020034   0.03975203
4943.00   1.89034331   0.03937431
4944.00   1.94984841   0.03971021
4945.00   1.99731386   0.03987743
4946.00   1.98027921   0.03974197
4947.00   1.98242319   0.03994727
4948.00   1.98054206   0.03998770
4949.00   1.95256948   0.03956288
4950.00   1.93425298   0.03942070
4951.00   1.95168269   0.03972869
4952.00   1.95530164   0.03982507
4953.00   1.95116866   0.03950296
4954.00   1.97122371   0.04223015
4955.00   2.01046753   0.04471828
4956.00   1.99700975   0.04166337
4957.00   1.88153613   0.03859816
4958.00   1.83077204   0.03870873
4959.00   1.83219075   0.03862519
4960.00   1.78908098   0.03831587
4961.00   1.77373827   0.03824264
4962.00   1.78366494   0.03843664
4963.00   1.75899148   0.03835642
4964.00   1.66880643   0.03774273
4965.00   1.66184747   0.03760548
4966.00   1.65369976   0.03767235
4967.00   1.55976164   0.03699299
4968.00   1.57248056   0.03698042
4969.00   1.59067893   0.03722741
4970.00   1.57829833   0.03727876
4971.00   1.53905845   0.03710608
4972.00   1.48673832   0.03707920
4973.00   1.44904459   0.03712145
4974.00   1.39323366   0.03706828
4975.00   1.35765851   0.03705557
4976.00   1.36462700   0.03702119
4977.00   1.28310597   0.03656850
4978.00   1.22817802   0.03663386
4979.00   1.26178432   0.03748443
4980.00   1.24822593   0.03830734
4981.00   1.16724229   0.03850191
4982.00   1.03999221   0.03766505
4983.00   1.02323866   0.03713696
4984.00   1.00022352   0.03651988
4985.00   0.90965718   0.03558312
4986.00   0.89305800   0.03515004
4987.00   0.86692601   0.03405379
4988.00   0.81968653   0.03318079
4989.00   0.81001371   0.03257895
4990.00   0.79599357   0.03195027
4991.00   0.75184494   0.03173800
4992.00   0.76500922   0.03170911
4993.00   0.76769036   0.03095999
4994.00   0.74390292   0.03008356
4995.00   0.74932545   0.02994557
4996.00   0.72661626   0.02976471
4997.00   0.73718208   0.02944671
4998.00   0.77852190   0.02939904
4999.00   0.75494891   0.02933653
5000.00   0.76228493   0.02939579
5001.00   0.79842734   0.02956612
5002.00   0.84311295   0.02997297
5003.00   0.89901608   0.03046978
5004.00   0.95396698   0.03087800
5005.00   0.99721950   0.03125527
5006.00   0.98629516   0.03131201
5007.00   1.05522764   0.03185814
5008.00   1.12023103   0.03250036
5009.00   1.11243331   0.03245883
5010.00   1.15281570   0.03275513
5011.00   1.22655582   0.03344379
5012.00   1.31160784   0.03406637
5013.00   1.34527004   0.03413355
5014.00   1.36991262   0.03454985
5015.00   1.41285300   0.03509925
5016.00   1.40026569   0.03517654
5017.00   1.41328418   0.03536664
5018.00   1.49467683   0.03599520
5019.00   1.56976855   0.03680145
5020.00   1.57104445   0.03686629
5021.00   1.50448155   0.03644791
5022.00   1.59332657   0.03724898
5023.00   1.67931128   0.03753053
5024.00   1.70449162   0.03752915
5025.00   1.71358299   0.03781391
5026.00   1.76601338   0.03793304
5027.00   1.94879031   0.03938197
5028.00   2.09139156   0.04182577
5029.00   2.16018820   0.04332428
5030.00   1.97680974   0.04177883
5031.00   1.78568053   0.04005415
5032.00   1.80589736   0.03975120
5033.00   1.81849694   0.03938611
5034.00   1.83587325   0.03919483
5035.00   1.89647532   0.03929989
5036.00   1.89196944   0.03907606
5037.00   1.89307368   0.03897765
5038.00   1.86911845   0.03875777
5039.00   1.80540097   0.03845945
5040.00   1.85565674   0.03878247
5041.00   1.85156739   0.03859959
5042.00   1.86500978   0.03872017
5043.00   1.89673853   0.03904657
5044.00   1.90372920   0.03927362
5045.00   1.86594152   0.03903725
5046.00   1.82597351   0.03866233
5047.00   1.81875730   0.03867672
5048.00   1.83097875   0.03872762
5049.00   1.81165564   0.03855021
5050.00   1.75282633   0.03827317
5051.00   1.74087834   0.03822329
5052.00   1.75681484   0.03821358
5053.00   1.72879565   0.03787035
5054.00   1.73308706   0.03786371
5055.00   1.79395008   0.03834104
5056.00   1.79868317   0.03839196
5057.00   1.75913632   0.03814319
5058.00   1.70215368   0.03772767
5059.00   1.63436103   0.03715630
5060.00   1.65444350   0.03728447
5061.00   1.66851687   0.03738457
5062.00   1.66845286   0.03765523
5063.00   1.64265919   0.03789518
5064.00   1.62768459   0.03807631
5065.00   1.62748635   0.03812897
5066.00   1.60606468   0.03781612
5067.00   1.59709418   0.03754941
5068.00   1.52991486   0.03738605
5069.00   1.50228596   0.03774499
5070.00   1.54070032   0.03848815
5071.00   1.55839121   0.03838057
5072.00   1.51697183   0.03737685
5073.00   1.55097616   0.03704857
5074.00   1.59933341   0.03724869
5075.00   1.52485311   0.03711229
5076.00   1.49485600   0.03693620
5077.00   1.46674109   0.03639697
5078.00   1.47266805   0.03632547
5079.00   1.48649311   0.03658764
5080.00   1.50597906   0.03766595
5081.00   1.51366937   0.03906909
5082.00   1.45586860   0.03990342
5083.00   1.45264888   0.04048957
5084.00   1.48190558   0.04089502
5085.00   1.49684763   0.04125984
5086.00   1.46910834   0.04142717
5087.00   1.46770537   0.04126673
5088.00   1.47004712   0.04037289
5089.00   1.43237126   0.03903404
5090.00   1.38584709   0.03789499
5091.00   1.37883747   0.03713596
5092.00   1.38694501   0.03656290
5093.00   1.39843249   0.03615790
5094.00   1.44621468   0.03598908
5095.00   1.39461911   0.03547190
5096.00   1.34702551   0.03556461
5097.00   1.34855843   0.03612665
5098.00   1.37349939   0.03685338
5099.00   1.39386261   0.03746298
5100.00   1.32781887   0.03711613
5101.00   1.24014461   0.03612645
5102.00   1.20700657   0.03530371
5103.00   1.22023511   0.03493729
5104.00   1.23976827   0.03459323
5105.00   1.29055285   0.03457363
5106.00   1.24536681   0.03400746
5107.00   1.18590474   0.03349374
5108.00   1.19610059   0.03364513
5109.00   1.16363883   0.03352540
5110.00   1.14205313   0.03341884
5111.00   1.16349220   0.03362134
5112.00   1.18193173   0.03383761
5113.00   1.20604968   0.03394601
5114.00   1.08187377   0.03296871
5115.00   1.07408726   0.03297465
5116.00   1.08116829   0.03317899
5117.00   1.07936621   0.03335435
5118.00   1.06339693   0.03303461
5119.00   1.04169929   0.03270481
5120.00   0.97411519   0.03177571
5121.00   0.99385589   0.03169106
5122.00   0.98884106   0.03141604
5123.00   0.92582780   0.03092428
5124.00   0.91425037   0.03088829
5125.00   0.89695245   0.03074298
5126.00   0.85308719   0.03034618
5127.00   0.86045122   0.03007930
5128.00   0.85038173   0.02993415
5129.00   0.79967302   0.02965690
5130.00   0.80137300   0.02918316
5131.00   0.76326841   0.02872932
5132.00   0.73645657   0.02893015
5133.00   0.72818279   0.02895117
5134.00   0.66537327   0.02835690
5135.00   0.68047792   0.02853181
5136.00   0.64122468   0.02807434
5137.00   0.64916682   0.02800678
5138.00   0.61889696   0.02781551
5139.00   0.59033287   0.02756276
5140.00   0.64903945   0.02803688
5141.00   0.63743961   0.02791309
5142.00   0.59325051   0.02773797
5143.00   0.59294921   0.02803728
5144.00   0.56551993   0.02769225
5145.00   0.57942784   0.02772698
5146.00   0.62572753   0.02825190
5147.00   0.64880043   0.02862530
5148.00   0.63905185   0.02899341
5149.00   0.64551282   0.02948835
5150.00   0.72371411   0.03044935
5151.00   0.77659887   0.03117536
5152.00   0.80518413   0.03163970
5153.00   0.81865948   0.03221624
5154.00   0.77823108   0.03247651
5155.00   0.74822861   0.03236683
5156.00   0.76259565   0.03186877
5157.00   0.77352333   0.03151792
5158.00   0.81468171   0.03176922
5159.00   0.85508466   0.03198563
5160.00   0.85848045   0.03171483
5161.00   0.87430221   0.03156302
5162.00   0.86039215   0.03151697
5163.00   0.83798528   0.03139228
5164.00   0.88919985   0.03172000
5165.00   0.90541065   0.03194772
5166.00   0.96810895   0.03209925
5167.00   0.95292026   0.03188418
5168.00   0.91332650   0.03175007
5169.00   0.98971665   0.03229353
5170.00   0.99845862   0.03266250
5171.00   0.99913961   0.03265081
5172.00   1.02484202   0.03299196
5173.00   1.01434886   0.03307948
5174.00   1.07192349   0.03346320
5175.00   1.13469768   0.03386425
5176.00   1.11543298   0.03397109
5177.00   1.13881993   0.03460288
5178.00   1.20104253   0.03523462
5179.00   1.22065723   0.03533676
5180.00   1.25619912   0.03565531
5181.00   1.26734531   0.03567344
5182.00   1.28057897   0.03569854
5183.00   1.28984511   0.03603354
5184.00   1.26260829   0.03587109
5185.00   1.31844592   0.03638575
5186.00   1.34936047   0.03665924
5187.00   1.37265027   0.03697668
5188.00   1.39559972   0.03741593
5189.00   1.41671133   0.03766928
5190.00   1.38383031   0.03736868
5191.00   1.34202290   0.03692576
5192.00   1.39864516   0.03737343
5193.00   1.45704317   0.03806837
5194.00   1.46868467   0.03820286
5195.00   1.50512862   0.03838783
5196.00   1.49304056   0.03857542
5197.00   1.44246662   0.03846401
5198.00   1.44556093   0.03870509
5199.00   1.49216163   0.03943588
5200.00   1.56413734   0.04007053
5201.00   1.52057421   0.03958613
5202.00   1.41451144   0.03854429
5203.00   1.44985962   0.03870745
5204.00   1.45402384   0.03858533
5205.00   1.39181399   0.03792040
5206.00   1.34467995   0.03743136
5207.00   1.33136845   0.03723183
5208.00   1.33451378   0.03742436
5209.00   1.37445676   0.03807279
5210.00   1.39172792   0.03854061
5211.00   1.34452415   0.03866090
5212.00   1.31024885   0.03848008
5213.00   1.28457129   0.03784044
5214.00   1.25654626   0.03754376
5215.00   1.29365170   0.03753357
5216.00   1.30324066   0.03753123
5217.00   1.28725469   0.03772375
5218.00   1.30152726   0.03811441
5219.00   1.31950307   0.03852341
5220.00   1.32366276   0.03911234
5221.00   1.37594962   0.03922853
5222.00   1.31632125   0.03832165
5223.00   1.30024147   0.03822294
5224.00   1.34570634   0.03855917
5225.00   1.35090995   0.03856846
5226.00   1.38247454   0.03878536
5227.00   1.40570951   0.03885536
5228.00   1.42441392   0.03892717
5229.00   1.45816755   0.03918543
5230.00   1.37215364   0.03879929
5231.00   1.41064262   0.03910211
5232.00   1.45193267   0.03958686
5233.00   1.46857369   0.03956295
5234.00   1.47111762   0.03967977
5235.00   1.45461833   0.03961889
5236.00   1.48862708   0.03995350
5237.00   1.50497627   0.04025777
5238.00   1.48273432   0.04014879
5239.00   1.45474195   0.04008003
5240.00   1.44218183   0.04026811
5241.00   1.43991816   0.04016781
5242.00   1.41807818   0.03971727
5243.00   1.37977839   0.03940371
5244.00   1.34666955   0.03904013
5245.00   1.34694457   0.03889053
5246.00   1.35097086   0.03901887
5247.00   1.34507978   0.03908194
5248.00   1.35805035   0.03918924
5249.00   1.35792661   0.03904539
5250.00   1.34265447   0.03873386
5251.00   1.33992350   0.03868969
5252.00   1.33193851   0.03873360
5253.00   1.27232528   0.03822130
5254.00   1.26469231   0.03823237
5255.00   1.26393843   0.03831471
5256.00   1.26848578   0.03854397
5257.00   1.24263954   0.03845321
5258.00   1.22851014   0.03862704
5259.00   1.24409926   0.03903938
5260.00   1.25279605   0.03893862
5261.00   1.29453838   0.03912011
5262.00   1.29029167   0.03884936
5263.00   1.27415407   0.03848919
5264.00   1.28517008   0.03864103
5265.00   1.31605661   0.03907238
5266.00   1.33386648   0.03954582
5267.00   1.32569027   0.03940425
5268.00   1.35999358   0.03976541
5269.00   1.26942325   0.03910979
5270.00   1.40225482   0.04048633
5271.00   1.42934477   0.04056619
5272.00   1.35670602   0.03983445
5273.00   1.37455666   0.04005537
5274.00   1.40674543   0.04029800
5275.00   1.39891708   0.04030649
5276.00   1.33593416   0.03993665
5277.00   1.34797859   0.04027536
5278.00   1.38677680   0.04080981
5279.00   1.36924303   0.04074674
5280.00   1.39938498   0.04066832
5281.00   1.41560614   0.04090924
5282.00   1.37776983   0.04087085
5283.00   1.37051797   0.04077365
5284.00   1.34000325   0.04018167
5285.00   1.27826273   0.04216756
5286.00   1.25854766   0.04273605
5287.00   1.30866730   0.04129935
5288.00   1.31457412   0.04061649
5289.00   1.24932241   0.03978734
5290.00   1.20290732   0.03920335
5291.00   1.17753088   0.03930036
5292.00   1.19070041   0.03955157
5293.00   1.19684517   0.03948548
5294.00   1.15403044   0.03893083
5295.00   1.10890377   0.03870305
5296.00   1.08592308   0.03883038
5297.00   1.10793209   0.03893480
5298.00   1.14678895   0.03910332
5299.00   1.17266691   0.03928633
5300.00   1.14873672   0.03919029
5301.00   1.15393829   0.03956632
5302.00   1.20266736   0.04024914
5303.00   1.19488335   0.04037266
5304.00   1.20581901   0.04038473
5305.00   1.18717539   0.03999860
5306.00   1.16064775   0.03996103
5307.00   1.21843290   0.04084195
5308.00   1.24631846   0.04109805
5309.00   1.28697789   0.04139949
5310.00   1.31983864   0.04189185
5311.00   1.30856931   0.04193434
5312.00   1.22815502   0.04197538
5313.00   1.27344894   0.04230576
5314.00   1.34931540   0.04284303
5315.00   1.36857045   0.04322436
5316.00   1.32664073   0.04260743
5317.00   1.31902671   0.04277251
5318.00   1.38945842   0.04356559
5319.00   1.47275901   0.04388201
5320.00   1.44510734   0.04378661
5321.00   1.38027298   0.04367212
5322.00   1.39772666   0.04376543
5323.00   1.45130146   0.04437456
5324.00   1.52004206   0.04527711
5325.00   1.51118553   0.04515298
5326.00   1.49997473   0.04511697
5327.00   1.48264825   0.04537636
5328.00   1.51336157   0.04556463
5329.00   1.50022793   0.04538253
5330.00   1.48745191   0.04585416
5331.00   1.58229375   0.04681392
5332.00   1.61391270   0.04702598
5333.00   1.56851745   0.04689321
5334.00   1.45889628   0.04592346
5335.00   1.49293101   0.04592884
5336.00   1.66690588   0.04763423
5337.00   1.62773585   0.04758153
5338.00   1.57043827   0.04696123
5339.00   1.61295688   0.04768120
5340.00   1.59842169   0.04809272
5341.00   1.55091619   0.04780539
5342.00   1.56286383   0.04823988
5343.00   1.59796560   0.04875118
5344.00   1.58715177   0.04847166
5345.00   1.62208021   0.04872261
5346.00   1.60414970   0.04855051
5347.00   1.50076807   0.04783658
5348.00   1.50335801   0.04860879
5349.00   1.53712463   0.04967401
5350.00   1.55885684   0.05007483
5351.00   1.58634233   0.05000944
5352.00   1.61146367   0.04987657
5353.00   1.59711313   0.04961440
5354.00   1.50794601   0.04892186
5355.00   1.48420465   0.04942322
5356.00   1.53863358   0.05092377
5357.00   1.57065821   0.05122288
5358.00   1.51750898   0.04987886
5359.00   1.54218733   0.04968329
5360.00   1.63093901   0.05035639
5361.00   1.61324930   0.05012989
5362.00   1.63785124   0.05020196
5363.00   1.59751546   0.04976023
5364.00   1.60624623   0.04966264
5365.00   1.60981297   0.04976845
5366.00   1.59082901   0.04947372
5367.00   1.54453540   0.04890498
5368.00   1.44574976   0.04836367
5369.00   1.53271568   0.04919615
5370.00   1.55781531   0.04958055
5371.00   1.52973294   0.04894206
5372.00   1.50938129   0.04918598
5373.00   1.61945891   0.05025129
5374.00   1.64314532   0.05107801
5375.00   1.65880072   0.05162090
5376.00   1.56594753   0.05089625
5377.00   1.47137403   0.04984817
5378.00   1.48898625   0.04998485
5379.00   1.57485342   0.02303860
5380.00   1.55745959   0.02378844
5381.00   1.54529011   0.02378271
5382.00   1.52535915   0.02328112
5383.00   1.54751706   0.02296794
5384.00   1.63213050   0.02231093
5385.00   1.67644739   0.02220938
5386.00   1.66038203   0.02297925
5387.00   1.62274694   0.02400189
5388.00   1.61563265   0.02445368
5389.00   1.63723195   0.02488450
5390.00   1.60442245   0.02448404
5391.00   1.50632906   0.02285752
5392.00   1.44672263   0.02166747
5393.00   1.44344914   0.02127120
5394.00   1.46638620   0.02124146
5395.00   1.48253131   0.02112618
5396.00   1.51576650   0.02108426
5397.00   1.52301717   0.02121548
5398.00   1.51176238   0.02150336
5399.00   1.49828589   0.02189544
5400.00   1.47980797   0.02249908
5401.00   1.46118295   0.02312342
5402.00   1.46153200   0.02332346
5403.00   1.49070513   0.02320800
5404.00   1.48168314   0.02308466
5405.00   1.42442226   0.02286964
5406.00   1.40335763   0.02252608
5407.00   1.44926596   0.02193137
5408.00   1.52047181   0.02124430
5409.00   1.53894007   0.02095175
5410.00   1.52600574   0.02092532
5411.00   1.51493013   0.02099886
5412.00   1.48763216   0.02123109
5413.00   1.46581936   0.02159231
5414.00   1.44970667   0.02221165
5415.00   1.44063675   0.02288258
5416.00   1.45518315   0.02299673
5417.00   1.50027645   0.02230743
5418.00   1.52912378   0.02254451
5419.00   1.56478345   0.02372300
5420.00   1.58320475   0.02433101
5421.00   1.56902683   0.02365771
5422.00   1.54016364   0.02251528
5423.00   1.54561365   0.02316781
5424.00   1.58272386   0.02624758
5425.00   1.59771347   0.02640009
5426.00   1.60958064   0.02432360
5427.00   1.61066878   0.02243967
5428.00   1.58901179   0.02157908
5429.00   1.55823994   0.02124884
5430.00   1.56981993   0.02144948
5431.00   1.63552761   0.02252711
5432.00   1.65220189   0.02326749
5433.00   1.64418769   0.02449233
5434.00   1.62635696   0.02495890
5435.00   1.59715497   0.02402606
5436.00   1.55975068   0.02220269
5437.00   1.54589474   0.02137641
5438.00   1.54769230   0.02100831
5439.00   1.55250502   0.02079134
5440.00   1.56964135   0.02103551
5441.00   1.58413053   0.02118963
5442.00   1.58739543   0.02092950
5443.00   1.58632433   0.02051273
5444.00   1.60181010   0.02080474
5445.00   1.65412378   0.02158591
5446.00   1.65189958   0.02246458
5447.00   1.59756267   0.02381635
5448.00   1.54717636   0.02485051
5449.00   1.52126658   0.02527478
5450.00   1.50653791   0.02534758
5451.00   1.50462961   0.02545503
5452.00   1.54619062   0.02542401
5453.00   1.52968180   0.02537155
5454.00   1.43421960   0.02518973
5455.00   1.37727356   0.02507346
5456.00   1.43659592   0.02478219
5457.00   1.56250799   0.02448226
5458.00   1.56175399   0.02637594
5459.00   1.46637905   0.03116268
5460.00   1.39527643   0.03283639
5461.00   1.28302813   0.03316769
5462.00   1.22048831   0.03223052
5463.00   1.27839184   0.02914691
5464.00   1.41704416   0.02357088
5465.00   1.44773924   0.02151898
5466.00   1.40095329   0.02321858
5467.00   1.39213753   0.02331140
5468.00   1.39979637   0.02298341
5469.00   1.41211832   0.02235897
5470.00   1.42795837   0.02117931
5471.00   1.44871187   0.01943187
5472.00   1.44851780   0.01899932
5473.00   1.42344558   0.01908246
5474.00   1.41461563   0.02036774
5475.00   1.42095339   0.02377584
5476.00   1.42392564   0.02600639
5477.00   1.41212463   0.02541616
5478.00   1.39121437   0.02283595
5479.00   1.37206769   0.02170451
5480.00   1.33904934   0.02091992
5481.00   1.32955301   0.02044727
5482.00   1.34224665   0.02059132
5483.00   1.36265898   0.02072754
5484.00   1.38501072   0.02032531
5485.00   1.41401350   0.01956998
5486.00   1.42416394   0.01957881
5487.00   1.42353904   0.02046931
5488.00   1.41415501   0.02068292
5489.00   1.38367176   0.02036353
5490.00   1.35965657   0.01987027
5491.00   1.36760843   0.01927309
5492.00   1.39907706   0.01838734
5493.00   1.40096319   0.01876471
5494.00   1.37609243   0.02026382
5495.00   1.37139249   0.02150401
5496.00   1.38574231   0.02327910
5497.00   1.40358758   0.02431448
5498.00   1.41763031   0.02342264
5499.00   1.43502414   0.02074933
5500.00   1.42072523   0.01934767
5501.00   1.36832380   0.01815984
5502.00   1.33357418   0.01759432
5503.00   1.30624771   0.01799590
5504.00   1.28981650   0.01859667
5505.00   1.29382408   0.01878100
5506.00   1.31840241   0.01887198
5507.00   1.32399344   0.01870800
5508.00   1.32426751   0.01791054
5509.00   1.31764412   0.01776674
5510.00   1.30274260   0.01853746
5511.00   1.28301549   0.01926353
5512.00   1.25954139   0.01908490
5513.00   1.22773337   0.01821384
5514.00   1.21776402   0.01805549
5515.00   1.22096848   0.01822451
5516.00   1.23350143   0.01851872
5517.00   1.26899981   0.01922001
5518.00   1.29977572   0.01975605
5519.00   1.28828955   0.01945218
5520.00   1.23558521   0.01838887
5521.00   1.24765682   0.01794102
5522.00   1.32642865   0.01771622
5523.00   1.36276495   0.01760769
5524.00   1.35101187   0.01754140
5525.00   1.32639468   0.01769856
5526.00   1.31752300   0.01837806
5527.00   1.30513048   0.01967920
5528.00   1.32826734   0.01990225
5529.00   1.38759232   0.01880904
5530.00   1.44374883   0.01881995
5531.00   1.51118183   0.02054322
5532.00   1.56809020   0.02217377
5533.00   1.57698941   0.02192130
5534.00   1.54211903   0.01997830
5535.00   1.52993906   0.01968536
5536.00   1.49501348   0.02040234
5537.00   1.50798035   0.02097255
5538.00   1.60609663   0.02171517
5539.00   1.70798945   0.02218113
5540.00   1.69680178   0.02145430
5541.00   1.58814752   0.01924617
5542.00   1.55653429   0.01848448
5543.00   1.56582677   0.01853804
5544.00   1.55969548   0.01882617
5545.00   1.52631295   0.01953902
5546.00   1.49316823   0.02033027
5547.00   1.49577820   0.02059780
5548.00   1.52515852   0.02055039
5549.00   1.55325115   0.02050140
5550.00   1.60818052   0.02020743
5551.00   1.63460755   0.02007973
5552.00   1.61713362   0.02008189
5553.00   1.58668482   0.02025937
5554.00   1.58854258   0.02085192
5555.00   1.61445463   0.02220235
5556.00   1.61808681   0.02219432
5557.00   1.60559464   0.02099328
5558.00   1.60072494   0.01999055
5559.00   1.61426234   0.01913251
5560.00   1.62706923   0.01854809
5561.00   1.60463023   0.01903337
5562.00   1.54177940   0.02103169
5563.00   1.51892567   0.02109211
5564.00   1.51033437   0.01941055
5565.00   1.51812434   0.01845078
5566.00   1.55661631   0.01878841
5567.00   1.60231471   0.01967485
5568.00   1.60143459   0.02038800
5569.00   1.56189489   0.02167075
5570.00   1.53760874   0.02165516
5571.00   1.48386860   0.01798605
5572.00   1.47878063   0.01877546
5573.00   1.55572248   0.02413263
5574.00   1.66550946   0.03136314
5575.00   1.71619022   0.04044718
5576.00   1.79346180   0.05471187
5577.00   1.70961416   0.05671964
5578.00   1.38826466   0.05038899
5579.00   1.19718850   0.04321700
5580.00   1.24414539   0.03587804
5581.00   1.39334548   0.02701863
5582.00   1.42761397   0.02102531
5583.00   1.40548050   0.02030720
5584.00   1.41971958   0.01832195
5585.00   1.45916331   0.01821138
5586.00   1.47766018   0.01808107
5587.00   1.45629370   0.01738391
5588.00   1.41731870   0.01667451
5589.00   1.40734601   0.01671453
5590.00   1.41707611   0.01764226
5591.00   1.41696048   0.01797473
5592.00   1.41266060   0.01827321
5593.00   1.41286695   0.01826404
5594.00   1.42604876   0.01772150
5595.00   1.44224119   0.01687042
5596.00   1.42959762   0.01653413
5597.00   1.37963688   0.01643494
5598.00   1.36084378   0.01654064
5599.00   1.35065377   0.01678428
5600.00   1.35468280   0.01735047
5601.00   1.38529181   0.01855848
5602.00   1.42864728   0.01993856
5603.00   1.42770958   0.02005382
5604.00   1.37973225   0.01907368
5605.00   1.36426950   0.01833072
5606.00   1.36326170   0.01710223
5607.00   1.36425078   0.01618068
5608.00   1.36359763   0.01604343
5609.00   1.36391568   0.01637274
5610.00   1.36500382   0.01637411
5611.00   1.36998594   0.01632525
5612.00   1.36882091   0.01627367
5613.00   1.36675036   0.01617072
5614.00   1.35738242   0.01610739
5615.00   1.33518612   0.01608609
5616.00   1.30469227   0.01611304
5617.00   1.28562677   0.01636899
5618.00   1.27295601   0.01694119
5619.00   1.25970721   0.01729259
5620.00   1.24382591   0.01770069
5621.00   1.23518300   0.01783632
5622.00   1.24107981   0.01745432
5623.00   1.25637519   0.01670587
5624.00   1.25870466   0.01637213
5625.00   1.25269175   0.01608908
5626.00   1.24939239   0.01617474
5627.00   1.24955499   0.01682821
5628.00   1.24439156   0.01732345
5629.00   1.22734964   0.01728816
5630.00   1.20245123   0.01696330
5631.00   1.18891191   0.01698909
5632.00   1.17269742   0.01737919
5633.00   1.17698991   0.01735632
5634.00   1.21409833   0.01700240
5635.00   1.24019492   0.01655820
5636.00   1.22999036   0.01609475
5637.00   1.19766665   0.01555782
5638.00   1.17144549   0.01529265
5639.00   1.12833536   0.01530092
5640.00   1.11004853   0.01523309
5641.00   1.11680651   0.01515007
5642.00   1.12549567   0.01509441
5643.00   1.12212396   0.01509142
5644.00   1.11391771   0.01512954
5645.00   1.11642802   0.01514481
5646.00   1.13169384   0.01503502
5647.00   1.13614333   0.01519396
5648.00   1.12329113   0.01573068
5649.00   1.12031782   0.01616081
5650.00   1.14886475   0.01618625
5651.00   1.19993258   0.01595926
5652.00   1.22564816   0.01581578
5653.00   1.24088871   0.01549942
5654.00   1.25069165   0.01544747
5655.00   1.24827862   0.01570607
5656.00   1.24717212   0.01596841
5657.00   1.26055658   0.01604189
5658.00   1.28422344   0.01602563
5659.00   1.28203678   0.01597553
5660.00   1.24724472   0.01558115
5661.00   1.23921120   0.01574693
5662.00   1.25332451   0.01666856
5663.00   1.27558601   0.01745004
5664.00   1.29949760   0.01743590
5665.00   1.32997954   0.01687180
5666.00   1.34860146   0.01695857
5667.00   1.36091101   0.01727212
5668.00   1.36899185   0.01785224
5669.00   1.37388480   0.01903745
5670.00   1.37248504   0.01995265
5671.00   1.35531008   0.01983783
5672.00   1.31831658   0.01889413
5673.00   1.34205294   0.01890703
5674.00   1.44188654   0.01981464
5675.00   1.48836482   0.01997685
5676.00   1.48667884   0.01933838
5677.00   1.46796477   0.01855788
5678.00   1.45161092   0.01812913
5679.00   1.42616785   0.01770949
5680.00   1.40974963   0.01830775
5681.00   1.39531171   0.02024318
5682.00   1.38601136   0.02124645
5683.00   1.37704694   0.02141842
5684.00   1.37778509   0.02142888
5685.00   1.40181732   0.02180917
5686.00   1.45035231   0.02236776
5687.00   1.47017658   0.02265328
5688.00   1.48774874   0.02291470
5689.00   1.47608006   0.02287252
5690.00   1.41198182   0.02248215
5691.00   1.35037923   0.02188928
5692.00   1.35821009   0.02117909
5693.00   1.42369223   0.02013460
5694.00   1.42903626   0.01975022
5695.00   1.39428592   0.02001312
5696.00   1.37395036   0.02009166
5697.00   1.36566186   0.02009537
5698.00   1.36316860   0.01997390
5699.00   1.36533105   0.01950559
5700.00   1.37422824   0.01857257
5701.00   1.38071513   0.01828406
5702.00   1.38701713   0.01871473
5703.00   1.39527714   0.01865162
5704.00   1.40823042   0.01788742
5705.00   1.42014742   0.01697223
5706.00   1.42292607   0.01662630
5707.00   1.41817462   0.01664368
5708.00   1.41604924   0.01663767
5709.00   1.42049789   0.01678518
5710.00   1.41049409   0.01693161
5711.00   1.37622273   0.01704291
5712.00   1.33895707   0.01720260
5713.00   1.32826197   0.01756079
5714.00   1.33430493   0.01827506
5715.00   1.34355700   0.01819418
5716.00   1.37284100   0.01716097
5717.00   1.38592720   0.01664982
5718.00   1.38143051   0.01681309
5719.00   1.36495650   0.01732040
5720.00   1.33598900   0.01797766
5721.00   1.27816200   0.01914515
5722.00   1.26828873   0.01937807
5723.00   1.29642487   0.01897921
5724.00   1.32181406   0.01846248
5725.00   1.34969234   0.01772848
5726.00   1.37275875   0.01688638
5727.00   1.36558008   0.01634266
5728.00   1.32396150   0.01598075
5729.00   1.31161380   0.01568982
5730.00   1.31200409   0.01556480
5731.00   1.31560302   0.01546305
5732.00   1.32182205   0.01535715
5733.00   1.33178937   0.01529659
5734.00   1.34565914   0.01532512
5735.00   1.36848056   0.01524896
5736.00   1.37920105   0.01578722
5737.00   1.37774312   0.01686746
5738.00   1.38259709   0.01789852
5739.00   1.40576255   0.01923444
5740.00   1.42819440   0.02029089
5741.00   1.40932894   0.01961856
5742.00   1.33837223   0.01637210
5743.00   1.32054949   0.01547005
5744.00   1.33625603   0.01645598
5745.00   1.35018981   0.01697419
5746.00   1.36009669   0.01652140
5747.00   1.36781454   0.01581021
5748.00   1.36329198   0.01595016
5749.00   1.35048914   0.01707834
5750.00   1.32930148   0.01703642
5751.00   1.28445220   0.01604417
5752.00   1.25785387   0.01526238
5753.00   1.26137376   0.01500046
5754.00   1.28082919   0.01498614
5755.00   1.29511726   0.01499554
5756.00   1.31987536   0.01522225
5757.00   1.32834613   0.01528314
5758.00   1.32920671   0.01519336
5759.00   1.32089770   0.01522814
5760.00   1.29545176   0.01538022
5761.00   1.26343334   0.01567811
5762.00   1.26074374   0.01639232
5763.00   1.28393734   0.01796062
5764.00   1.29804945   0.01833946
5765.00   1.31662869   0.01758956
5766.00   1.33154571   0.01733035
5767.00   1.34542263   0.01837872
5768.00   1.35420322   0.01980110
5769.00   1.33502221   0.01974930
5770.00   1.26776958   0.01824602
5771.00   1.24810815   0.01755261
5772.00   1.25579047   0.01702416
5773.00   1.26988721   0.01667661
5774.00   1.29189086   0.01659455
5775.00   1.31798863   0.01670088
5776.00   1.30917871   0.01661265
5777.00   1.26113987   0.01599523
5778.00   1.23601103   0.01641985
5779.00   1.20055091   0.01816816
5780.00   1.19549417   0.01914003
5781.00   1.25550699   0.01860760
5782.00   1.34970105   0.01718489
5783.00   1.35414016   0.01639483
5784.00   1.26261818   0.01541374
5785.00   1.24455535   0.01519047
5786.00   1.27152967   0.01572812
5787.00   1.29873407   0.01642026
5788.00   1.31284559   0.01719681
5789.00   1.32221341   0.01805261
5790.00   1.31294918   0.01821166
5791.00   1.27118397   0.01775767
5792.00   1.25848842   0.01740618
5793.00   1.27037060   0.01690875
5794.00   1.27796578   0.01640221
5795.00   1.26451755   0.01589729
5796.00   1.24106336   0.01539273
5797.00   1.24302506   0.01529639
5798.00   1.28740764   0.01550446
5799.00   1.27824891   0.01590989
5800.00   1.21746445   0.01665545
5801.00   1.15895176   0.01738125
5802.00   1.12606061   0.01794483
5803.00   1.10484529   0.01844570
5804.00   1.09940493   0.01889567
5805.00   1.11857164   0.01961792
5806.00   1.12936175   0.01958319
5807.00   1.14367270   0.01874427
5808.00   1.15115523   0.01775477
5809.00   1.14022875   0.01686369
5810.00   1.11648798   0.01590011
5811.00   1.12427986   0.01587464
5812.00   1.17034161   0.01739493
5813.00   1.18381822   0.01743082
5814.00   1.17239606   0.01595166
5815.00   1.15491223   0.01451347
5816.00   1.14201856   0.01439884
5817.00   1.12830389   0.01506483
5818.00   1.10342145   0.01520309
5819.00   1.05253136   0.01533934
5820.00   1.03378928   0.01525656
5821.00   1.04657483   0.01477123
5822.00   1.06418395   0.01440283
5823.00   1.07271552   0.01457973
5824.00   1.08043528   0.01511051
5825.00   1.07222748   0.01536064
5826.00   1.04801846   0.01547993
5827.00   1.02427387   0.01569695
5828.00   0.99269634   0.01599153
5829.00   0.96525055   0.01630120
5830.00   0.95243406   0.01670369
5831.00   0.94999248   0.01723788
5832.00   0.94366539   0.01682547
5833.00   0.93566710   0.01491710
5834.00   0.93416417   0.01410683
5835.00   0.94002980   0.01448288
5836.00   0.94802076   0.01509156
5837.00   0.95711714   0.01535162
5838.00   0.97068751   0.01556891
5839.00   0.95895106   0.01565222
5840.00   0.91713184   0.01568314
5841.00   0.89077127   0.01551366
5842.00   0.86923355   0.01497255
5843.00   0.85993665   0.01446149
5844.00   0.87689501   0.01440806
5845.00   0.92026681   0.01468009
5846.00   0.92897409   0.01473970
5847.00   0.91339999   0.01475087
5848.00   0.90399510   0.01476252
5849.00   0.89596164   0.01477662
5850.00   0.89016593   0.01477361
5851.00   0.89039791   0.01471252
5852.00   0.89647901   0.01456813
5853.00   0.89608181   0.01467759
5854.00   0.89637828   0.01468872
5855.00   0.88799870   0.01531396
5856.00   0.86332762   0.01678461
5857.00   0.84106129   0.01817542
5858.00   0.83938140   0.01883234
5859.00   0.84821975   0.01920416
5860.00   0.87936753   0.01888907
5861.00   0.95702273   0.01729143
5862.00   0.99712074   0.01643016
5863.00   0.99788219   0.01643851
5864.00   0.98231965   0.01677838
5865.00   0.96863425   0.01709094
5866.00   0.94783288   0.01769690
5867.00   0.92503166   0.01755279
5868.00   0.88726056   0.01654201
5869.00   0.86808640   0.01595859
5870.00   0.87049717   0.01586950
5871.00   0.88215363   0.01598119
5872.00   0.89061081   0.01610766
5873.00   0.89944738   0.01645381
5874.00   0.91929185   0.01630818
5875.00   0.95235455   0.01548727
5876.00   0.98208100   0.01516490
5877.00   1.00925958   0.01558430
5878.00   1.03481615   0.01613063
5879.00   1.05787694   0.01614620
5880.00   1.07965255   0.01585140
5881.00   1.09580123   0.01560908
5882.00   1.09676695   0.01483215
5883.00   1.11440182   0.01487700
5884.00   1.14644957   0.01485613
5885.00   1.19366980   0.01625880
5886.00   1.26887643   0.02108251
5887.00   1.39707851   0.02798017
5888.00   1.43103683   0.03139347
5889.00   1.38526094   0.03428937
5890.00   1.35225022   0.03558657
5891.00   1.32394493   0.03449617
5892.00   1.30832422   0.03279116
5893.00   1.34472036   0.03386424
5894.00   1.45384526   0.03767945
5895.00   1.46782386   0.03745719
5896.00   1.40716517   0.03413861
5897.00   1.36370432   0.03083187
5898.00   1.34076369   0.02752203
5899.00   1.32923353   0.02406367
5900.00   1.33539796   0.02157979
5901.00   1.36278522   0.02031589
5902.00   1.38537550   0.01876939
5903.00   1.40927422   0.01730375
5904.00   1.44012201   0.01647099
5905.00   1.48685277   0.01653403
5906.00   1.53455615   0.01721934
5907.00   1.55190170   0.01810846
5908.00   1.54661334   0.01985187
5909.00   1.53829229   0.02021406
5910.00   1.51603329   0.01958039
5911.00   1.49336648   0.01896494
5912.00   1.46816146   0.01833259
5913.00   1.44417107   0.01777427
5914.00   1.43581784   0.01800633
5915.00   1.43973565   0.01937343
5916.00   1.44695425   0.01939143
5917.00   1.47204089   0.01842628
5918.00   1.48239160   0.01755685
5919.00   1.46288621   0.01687827
5920.00   1.43443966   0.01636064
5921.00   1.44116306   0.01647874
5922.00   1.48108196   0.01744496
5923.00   1.49838507   0.01777543
5924.00   1.51226270   0.01796979
5925.00   1.51669240   0.01793985
5926.00   1.50910604   0.01743655
5927.00   1.49266028   0.01677803
5928.00   1.47371209   0.01705864
5929.00   1.43578660   0.01842693
5930.00   1.42825031   0.01878315
5931.00   1.44464612   0.01845773
5932.00   1.46221399   0.01835596
5933.00   1.48000741   0.01860924
5934.00   1.49716294   0.01912312
5935.00   1.49481308   0.02017999
5936.00   1.46180522   0.02271731
5937.00   1.45996392   0.02289402
5938.00   1.48760331   0.02101283
5939.00   1.49992800   0.01937344
5940.00   1.48164427   0.01886084
5941.00   1.44659078   0.01890173
5942.00   1.41537261   0.01905717
5943.00   1.36269510   0.02021481
5944.00   1.34705913   0.01993633
5945.00   1.36808622   0.01813618
5946.00   1.38213253   0.01668239
5947.00   1.37142801   0.01656205
5948.00   1.35086524   0.01712750
5949.00   1.34846544   0.01725877
5950.00   1.35969126   0.01756575
5951.00   1.36537755   0.01740284
5952.00   1.37359560   0.01664370
5953.00   1.37728667   0.01603273
5954.00   1.37181938   0.01594957
5955.00   1.36098838   0.01613700
5956.00   1.35785818   0.01608364
5957.00   1.36473048   0.01593517
5958.00   1.35845995   0.01582257
5959.00   1.33416450   0.01557170
5960.00   1.32005644   0.01553749
5961.00   1.33213997   0.01595533
5962.00   1.35907400   0.01663086
5963.00   1.36656725   0.01695186
5964.00   1.36936510   0.01710408
5965.00   1.35972691   0.01724398
5966.00   1.32653809   0.01735675
5967.00   1.30268562   0.01738507
5968.00   1.30909610   0.01727291
5969.00   1.33247042   0.01705479
5970.00   1.32577276   0.01695647
5971.00   1.29155993   0.01691945
5972.00   1.27565897   0.01687672
5973.00   1.26240134   0.01684545
5974.00   1.26319838   0.01682353
5975.00   1.29290676   0.01683479
5976.00   1.34346998   0.01686718
5977.00   1.35000801   0.01673123
5978.00   1.31238508   0.01648666
5979.00   1.30422950   0.01614283
5980.00   1.31631076   0.01552541
5981.00   1.33023977   0.01502158
5982.00   1.33963203   0.01489589
5983.00   1.34860921   0.01502422
5984.00   1.33919322   0.01520691
5985.00   1.29584301   0.01552305
5986.00   1.28778231   0.01592054
5987.00   1.31401300   0.01664655
5988.00   1.34144568   0.01710609
5989.00   1.35179842   0.01688175
5990.00   1.35495615   0.01615342
5991.00   1.35129619   0.01581488
5992.00   1.33334720   0.01555848
5993.00   1.32421398   0.01540978
5994.00   1.32376277   0.01547256
5995.00   1.32144964   0.01550101
5996.00   1.30706632   0.01523335
5997.00   1.28352928   0.01473244
5998.00   1.28726900   0.01495373
5999.00   1.32169425   0.01597230
6000.00   1.33727884   0.01645627
6001.00   1.33991170   0.01670578
6002.00   1.33719265   0.01667430
6003.00   1.33011055   0.01610201
6004.00   1.31578386   0.01491077
6005.00   1.32239640   0.01493741
6006.00   1.35675037   0.01621186
6007.00   1.36825204   0.01670940
6008.00   1.35783958   0.01675579
6009.00   1.34285641   0.01650021
6010.00   1.33650184   0.01576995
6011.00   1.33396590   0.01434168
6012.00   1.31879258   0.01450171
6013.00   1.28962982   0.01640270
6014.00   1.26756561   0.01711496
6015.00   1.24503934   0.01698945
6016.00   1.23152399   0.01648686
6017.00   1.23859739   0.01573909
6018.00   1.26344883   0.01444232
6019.00   1.28317821   0.01408780
6020.00   1.31119144   0.01458014
6021.00   1.32986617   0.01486476
6022.00   1.34191811   0.01511260
6023.00   1.34677327   0.01528191
6024.00   1.34086525   0.01523647
6025.00   1.32263839   0.01499136
6026.00   1.31582117   0.01490478
6027.00   1.31387997   0.01489237
6028.00   1.31294882   0.01485626
6029.00   1.31668782   0.01466120
6030.00   1.31839848   0.01461599
6031.00   1.30886412   0.01513563
6032.00   1.28869021   0.01617972
6033.00   1.28154147   0.01648261
6034.00   1.28212214   0.01650687
6035.00   1.28317225   0.01619509
6036.00   1.28572881   0.01518448
6037.00   1.28923786   0.01411653
6038.00   1.29195249   0.01403480
6039.00   1.29376543   0.01474868
6040.00   1.29996598   0.01488648
6041.00   1.31444871   0.01488222
6042.00   1.32062638   0.01478302
6043.00   1.31590724   0.01449990
6044.00   1.30834699   0.01419143
6045.00   1.30687666   0.01410240
6046.00   1.30871904   0.01417198
6047.00   1.30775380   0.01417542
6048.00   1.30789638   0.01420988
6049.00   1.30342948   0.01420206
6050.00   1.28799713   0.01400034
6051.00   1.27460968   0.01390502
6052.00   1.28325486   0.01441728
6053.00   1.31270301   0.01555261
6054.00   1.32584846   0.01590129
6055.00   1.34569418   0.01589394
6056.00   1.33976531   0.01568739
6057.00   1.29041243   0.01508379
6058.00   1.23360002   0.01439231
6059.00   1.22432196   0.01427160
6060.00   1.25154376   0.01466496
6061.00   1.25829422   0.01462677
6062.00   1.26813650   0.01433961
6063.00   1.26504755   0.01413042
6064.00   1.23563159   0.01392360
6065.00   1.20483458   0.01384213
6066.00   1.21690571   0.01422851
6067.00   1.27061713   0.01520291
6068.00   1.29040134   0.01546414
6069.00   1.29745960   0.01533595
6070.00   1.29878354   0.01512599
6071.00   1.28932953   0.01466761
6072.00   1.27759087   0.01422170
6073.00   1.28392231   0.01450722
6074.00   1.31096530   0.01562755
6075.00   1.31305325   0.01581995
6076.00   1.29543710   0.01548897
6077.00   1.28323495   0.01509605
6078.00   1.27877724   0.01457459
6079.00   1.27843940   0.01401999
6080.00   1.28256011   0.01387625
6081.00   1.29524660   0.01416256
6082.00   1.29963398   0.01415921
6083.00   1.29720438   0.01377828
6084.00   1.29828775   0.01388043
6085.00   1.30805838   0.01483356
6086.00   1.31883860   0.01598697
6087.00   1.31463885   0.01633733
6088.00   1.29460740   0.01632679
6089.00   1.28575933   0.01597623
6090.00   1.28070128   0.01475022
6091.00   1.27704680   0.01397153
6092.00   1.27433252   0.01408461
6093.00   1.27309096   0.01465064
6094.00   1.27385902   0.01511154
6095.00   1.28044546   0.01597741
6096.00   1.27831793   0.01613503
6097.00   1.27766001   0.01582234
6098.00   1.26279342   0.01535313
6099.00   1.22075546   0.01455631
6100.00   1.16807854   0.01363784
6101.00   1.15062428   0.01372124
6102.00   1.16268778   0.01494783
6103.00   1.16327906   0.01533252
6104.00   1.16966176   0.01550473
6105.00   1.16864514   0.01545497
6106.00   1.15455580   0.01497865
6107.00   1.13334775   0.01430498
6108.00   1.11818111   0.01445757
6109.00   1.10452759   0.01549769
6110.00   1.09093976   0.01588289
6111.00   1.07367420   0.01608358
6112.00   1.06378615   0.01612948
6113.00   1.06850517   0.01598889
6114.00   1.08055091   0.01569841
6115.00   1.07734203   0.01546299
6116.00   1.05306017   0.01506606
6117.00   1.05488169   0.01496827
6118.00   1.07573950   0.01517175
6119.00   1.09875584   0.01533672
6120.00   1.12248611   0.01537180
6121.00   1.14678729   0.01534260
6122.00   1.15112412   0.01520539
6123.00   1.13351250   0.01466050
6124.00   1.12533557   0.01473428
6125.00   1.11727905   0.01542719
6126.00   1.11112094   0.01597727
6127.00   1.10594583   0.01617275
6128.00   1.10277128   0.01617843
6129.00   1.11161494   0.01593013
6130.00   1.13501930   0.01511848
6131.00   1.15279019   0.01477205
6132.00   1.17149842   0.01462891
6133.00   1.18791997   0.01471910
6134.00   1.20118153   0.01521642
6135.00   1.21176553   0.01595482
6136.00   1.21619475   0.01593134
6137.00   1.21130896   0.01520809
6138.00   1.21139908   0.01475336
6139.00   1.20625043   0.01421370
6140.00   1.21247768   0.01387432
6141.00   1.24255610   0.01397341
6142.00   1.28885067   0.01437081
6143.00   1.31686831   0.01450285
6144.00   1.34438014   0.01453033
6145.00   1.35363615   0.01459007
6146.00   1.33827937   0.01466243
6147.00   1.32429922   0.01471613
6148.00   1.32487297   0.01470228
6149.00   1.33242857   0.01464475
6150.00   1.34373748   0.01481183
6151.00   1.36609197   0.01519170
6152.00   1.37984717   0.01549973
6153.00   1.39031327   0.01585135
6154.00   1.39525902   0.01612166
6155.00   1.39068031   0.01620512
6156.00   1.37810147   0.01615509
6157.00   1.37710762   0.01627546
6158.00   1.38209128   0.01657137
6159.00   1.38924587   0.01668501
6160.00   1.40463328   0.01667709
6161.00   1.41573870   0.01658809
6162.00   1.41076994   0.01643252
6163.00   1.39413524   0.01619951
6164.00   1.40081251   0.01589283
6165.00   1.43487382   0.01505932
6166.00   1.44574964   0.01509429
6167.00   1.43961942   0.01628059
6168.00   1.42509902   0.01723997
6169.00   1.40156066   0.01717132
6170.00   1.36586177   0.01647613
6171.00   1.36573756   0.01584414
6172.00   1.40244102   0.01459505
6173.00   1.42143333   0.01399780
6174.00   1.43440008   0.01420689
6175.00   1.43712747   0.01449666
6176.00   1.42034030   0.01431214
6177.00   1.38498878   0.01385833
6178.00   1.37195313   0.01387762
6179.00   1.37165439   0.01420921
6180.00   1.37106633   0.01457230
6181.00   1.37415206   0.01518848
6182.00   1.37685800   0.01564049
6183.00   1.37377381   0.01553737
6184.00   1.36585140   0.01499046
6185.00   1.36869133   0.01476707
6186.00   1.38251317   0.01456274
6187.00   1.39068496   0.01453964
6188.00   1.39714015   0.01488251
6189.00   1.39871442   0.01512932
6190.00   1.39024472   0.01479736
6191.00   1.37228179   0.01395317
6192.00   1.36003196   0.01370061
6193.00   1.34701824   0.01387352
6194.00   1.33760154   0.01392850
6195.00   1.33237076   0.01390848
6196.00   1.32882237   0.01387853
6197.00   1.32567716   0.01386664
6198.00   1.32541859   0.01386471
6199.00   1.31464279   0.01383857
6200.00   1.28922594   0.01373741
6201.00   1.27478695   0.01374726
6202.00   1.27207839   0.01389703
6203.00   1.27329636   0.01407848
6204.00   1.27335727   0.01420021
6205.00   1.27789307   0.01432740
6206.00   1.26566911   0.01431404
6207.00   1.22843206   0.01341914
6208.00   1.21133256   0.01398907
6209.00   1.22348750   0.01631487
6210.00   1.23729837   0.01868647
6211.00   1.22022915   0.02010008
6212.00   1.17687845   0.02152303
6213.00   1.16395426   0.02103145
6214.00   1.17025101   0.01775947
6215.00   1.17484093   0.01546584
6216.00   1.18025684   0.01478414
6217.00   1.18489730   0.01478689
6218.00   1.18337798   0.01458161
6219.00   1.17681611   0.01455214
6220.00   1.17168880   0.01475955
6221.00   1.16934872   0.01541886
6222.00   1.15979218   0.01580230
6223.00   1.13650179   0.01604013
6224.00   1.11310422   0.01601242
6225.00   1.10902929   0.01530883
6226.00   1.11726999   0.01352627
6227.00   1.13165760   0.01302050
6228.00   1.16748726   0.01367329
6229.00   1.18619657   0.01392973
6230.00   1.17901182   0.01361140
6231.00   1.16528273   0.01319894
6232.00   1.17130268   0.01326618
6233.00   1.19284272   0.01364664
6234.00   1.19872534   0.01399963
6235.00   1.18691480   0.01451634
6236.00   1.19132316   0.01492896
6237.00   1.22227895   0.01533581
6238.00   1.25992692   0.01559380
6239.00   1.27424383   0.01534207
6240.00   1.27250814   0.01442172
6241.00   1.27660656   0.01407445
6242.00   1.27492642   0.01408116
6243.00   1.28099704   0.01402622
6244.00   1.30094898   0.01381135
6245.00   1.32422948   0.01360394
6246.00   1.33200407   0.01363734
6247.00   1.32703722   0.01372354
6248.00   1.32920647   0.01424318
6249.00   1.33613551   0.01532375
6250.00   1.33723235   0.01613051
6251.00   1.32521188   0.01673251
6252.00   1.31163204   0.01709237
6253.00   1.32109451   0.01680959
6254.00   1.35653186   0.01561098
6255.00   1.36831379   0.01506271
6256.00   1.36712635   0.01469693
6257.00   1.36562490   0.01455946
6258.00   1.36600566   0.01481192
6259.00   1.36549509   0.01520845
6260.00   1.36164689   0.01513793
6261.00   1.34727681   0.01459936
6262.00   1.35272169   0.01447865
6263.00   1.37921357   0.01466955
6264.00   1.39805138   0.01473769
6265.00   1.40361011   0.01454543
6266.00   1.40198064   0.01425777
6267.00   1.39648426   0.01417470
6268.00   1.37610924   0.01419156
6269.00   1.37555134   0.01428007
6270.00   1.39475048   0.01458250
6271.00   1.40546668   0.01472997
6272.00   1.39775527   0.01455631
6273.00   1.38247490   0.01425376
6274.00   1.37959588   0.01428991
6275.00   1.39591455   0.01450122
6276.00   1.38218665   0.01483508
6277.00   1.33773935   0.01555896
6278.00   1.30387938   0.01595850
6279.00   1.29294562   0.01583928
6280.00   1.29377794   0.01540093
6281.00   1.29407346   0.01492076
6282.00   1.29794300   0.01390316
6283.00   1.30707693   0.01357358
6284.00   1.32618952   0.01379505
6285.00   1.34154153   0.01406692
6286.00   1.35085857   0.01425945
6287.00   1.35528779   0.01446938
6288.00   1.34646821   0.01467104
6289.00   1.30864811   0.01508483
6290.00   1.30419135   0.01501311
6291.00   1.32931757   0.01437321
6292.00   1.34800541   0.01386236
6293.00   1.34696269   0.01373186
6294.00   1.33611143   0.01383202
6295.00   1.32634556   0.01420883
6296.00   1.30247653   0.01483086
6297.00   1.30127573   0.01564578
6298.00   1.33362067   0.01684903
6299.00   1.34610271   0.01784795
6300.00   1.30640471   0.01861114
6301.00   1.23861241   0.01918389
6302.00   1.22321272   0.01886642
6303.00   1.23760116   0.01722529
6304.00   1.26052916   0.01632619
6305.00   1.31967425   0.01581109
6306.00   1.35897934   0.01537398
6307.00   1.34661329   0.01487590
6308.00   1.30334866   0.01440725
6309.00   1.28605306   0.01409209
6310.00   1.27480233   0.01381776
6311.00   1.26822984   0.01384605
6312.00   1.26935005   0.01441411
6313.00   1.27149892   0.01475648
6314.00   1.27057230   0.01442843
6315.00   1.26898670   0.01367398
6316.00   1.27390337   0.01343658
6317.00   1.29299951   0.01337554
6318.00   1.29352510   0.01356745
6319.00   1.27133131   0.01422150
6320.00   1.25518930   0.01473511
6321.00   1.26463974   0.01481553
6322.00   1.28945804   0.01464539
6323.00   1.28994918   0.01442156
6324.00   1.26898789   0.01376408
6325.00   1.26164711   0.01363207
6326.00   1.26256955   0.01410685
6327.00   1.26618862   0.01450112
6328.00   1.27333117   0.01442923
6329.00   1.28472042   0.01409318
6330.00   1.27240038   0.01385013
6331.00   1.22696137   0.01338493
6332.00   1.20866942   0.01329331
6333.00   1.21362960   0.01369440
6334.00   1.22189593   0.01402321
6335.00   1.22356403   0.01389752
6336.00   1.22457981   0.01348418
6337.00   1.21324313   0.01335891
6338.00   1.17901742   0.01341667
6339.00   1.16744196   0.01338171
6340.00   1.18083715   0.01329400
6341.00   1.19374025   0.01318116
6342.00   1.18657768   0.01303638
6343.00   1.16699100   0.01284826
6344.00   1.16509342   0.01278847
6345.00   1.17602766   0.01283665
6346.00   1.18311918   0.01288016
6347.00   1.19277263   0.01291610
6348.00   1.19708312   0.01299545
6349.00   1.18832421   0.01320407
6350.00   1.16950822   0.01354705
6351.00   1.14915526   0.01347426
6352.00   1.11578906   0.01288872
6353.00   1.09590042   0.01263928
6354.00   1.09028089   0.01265173
6355.00   1.08774734   0.01281993
6356.00   1.07856953   0.01315796
6357.00   1.06548131   0.01372645
6358.00   1.06573248   0.01379537
6359.00   1.07589734   0.01316041
6360.00   1.08888507   0.01320802
6361.00   1.11344540   0.01401417
6362.00   1.13279092   0.01490921
6363.00   1.12911379   0.01551005
6364.00   1.10866237   0.01612821
6365.00   1.08770621   0.01595012
6366.00   1.04963267   0.01475521
6367.00   1.02841437   0.01392176
6368.00   1.02427542   0.01341407
6369.00   1.02753186   0.01304154
6370.00   1.03123999   0.01270758
6371.00   1.03972685   0.01246736
6372.00   1.04520130   0.01231900
6373.00   1.05692494   0.01218231
6374.00   1.05479634   0.01231597
6375.00   1.03064322   0.01292094
6376.00   1.00594699   0.01347894
6377.00   1.00433016   0.01342418
6378.00   1.01659977   0.01285132
6379.00   1.03414345   0.01279157
6380.00   1.07737088   0.01314036
6381.00   1.09400976   0.01322585
6382.00   1.07375681   0.01298123
6383.00   1.04712391   0.01266752
6384.00   1.04951477   0.01256106
6385.00   1.07301247   0.01254742
6386.00   1.07471371   0.01261498
6387.00   1.05920529   0.01281425
6388.00   1.05358732   0.01300119
6389.00   1.05733609   0.01319491
6390.00   1.06746113   0.01337946
6391.00   1.08506489   0.01351806
6392.00   1.11547518   0.01364537
6393.00   1.12854743   0.01367199
6394.00   1.13241506   0.01366228
6395.00   1.13140392   0.01351394
6396.00   1.12497640   0.01306644
6397.00   1.11367297   0.01260893
6398.00   1.09781480   0.01266843
6399.00   1.07073665   0.01320423
6400.00   1.06400704   0.01334724
6401.00   1.07393134   0.01327128
6402.00   1.08236694   0.01328535
6403.00   1.09196281   0.01346918
6404.00   1.09920728   0.01365279
6405.00   1.09330726   0.01360137
6406.00   1.07373166   0.01334030
6407.00   1.06315422   0.01319099
6408.00   1.05497694   0.01307212
6409.00   1.04771721   0.01292954
6410.00   1.04366434   0.01274184
6411.00   1.03888297   0.01254558
6412.00   1.02476215   0.01239011
6413.00   1.00051153   0.01215672
6414.00   0.98448420   0.01227210
6415.00   0.97220683   0.01282031
6416.00   0.96017444   0.01315955
6417.00   0.94627923   0.01326878
6418.00   0.93404043   0.01321723
6419.00   0.93085313   0.01293998
6420.00   0.94201344   0.01226716
6421.00   0.93412793   0.01191260
6422.00   0.91375369   0.01164951
6423.00   0.89138424   0.01153525
6424.00   0.86726177   0.01167805
6425.00   0.84129703   0.01191060
6426.00   0.81699681   0.01184455
6427.00   0.79007471   0.01142639
6428.00   0.77168381   0.01144252
6429.00   0.75667828   0.01167985
6430.00   0.74982071   0.01205492
6431.00   0.75881952   0.01277291
6432.00   0.77238315   0.01347400
6433.00   0.76083744   0.01326222
6434.00   0.72791433   0.01193714
6435.00   0.70229900   0.01140248
6436.00   0.66799998   0.01125331
6437.00   0.64482182   0.01114536
6438.00   0.64333373   0.01102789
6439.00   0.65018862   0.01094603
6440.00   0.63362896   0.01082975
6441.00   0.59205258   0.01035909
6442.00   0.57392657   0.01074940
6443.00   0.57352334   0.01213151
6444.00   0.56685936   0.01293802
6445.00   0.54681075   0.01291381
6446.00   0.52046758   0.01242627
6447.00   0.49727476   0.01182163
6448.00   0.46595061   0.01046979
6449.00   0.45251474   0.00981942
6450.00   0.46031061   0.00968859
6451.00   0.45971557   0.00963711
6452.00   0.43486938   0.00938529
6453.00   0.40179831   0.00921950
6454.00   0.40356043   0.00996661
6455.00   0.44607005   0.01197825
6456.00   0.45615834   0.01251818
6457.00   0.45395795   0.01240065
6458.00   0.44241583   0.01192670
6459.00   0.41701108   0.01088302
6460.00   0.38291857   0.00933211
6461.00   0.36934909   0.00895791
6462.00   0.36833549   0.00963144
6463.00   0.37059087   0.01012826
6464.00   0.38297430   0.01092186
6465.00   0.39443132   0.01157463
6466.00   0.40248528   0.01204832
6467.00   0.40850094   0.01238731
6468.00   0.40502927   0.01222600
6469.00   0.38647455   0.01138466
6470.00   0.38005671   0.01081368
6471.00   0.38485178   0.01012094
6472.00   0.38470909   0.00966510
6473.00   0.36845940   0.00973748
6474.00   0.34424615   0.01015328
6475.00   0.34489533   0.01026304
6476.00   0.36654702   0.01027391
6477.00   0.38329378   0.01028723
6478.00   0.40864423   0.01027346
6479.00   0.42518467   0.01024258
6480.00   0.41902313   0.01014969
6481.00   0.39906403   0.01002396
6482.00   0.40762898   0.01021072
6483.00   0.44114622   0.01072608
6484.00   0.46249500   0.01107304
6485.00   0.48428217   0.01157819
6486.00   0.49745646   0.01174321
6487.00   0.49365392   0.01110873
6488.00   0.47750533   0.00982184
6489.00   0.47513732   0.00973106
6490.00   0.47220621   0.01050449
6491.00   0.48512533   0.01121424
6492.00   0.51763695   0.01238218
6493.00   0.55153942   0.01314096
6494.00   0.57840377   0.01301957
6495.00   0.60323143   0.01229357
6496.00   0.61727458   0.01192648
6497.00   0.61407733   0.01141979
6498.00   0.62380689   0.01130204
6499.00   0.64540118   0.01172194
6500.00   0.66596127   0.01206650
6501.00   0.67673701   0.01193187
6502.00   0.68175334   0.01150151
6503.00   0.69571882   0.01149818
6504.00   0.72178680   0.01189356
6505.00   0.73404890   0.01199398
6506.00   0.72673821   0.01187702
6507.00   0.72554988   0.01169511
6508.00   0.75032371   0.01150578
6509.00   0.79289436   0.01126000
6510.00   0.82026172   0.01120448
6511.00   0.84664309   0.01131667
6512.00   0.86288190   0.01141214
6513.00   0.86256129   0.01149406
6514.00   0.86436063   0.01163243
6515.00   0.88270944   0.01191256
6516.00   0.91119003   0.01231873
6517.00   0.93935776   0.01241904
6518.00   0.97483259   0.01212301
6519.00   1.00497866   0.01218419
6520.00   1.03067935   0.01248817
6521.00   1.05479348   0.01298245
6522.00   1.07931173   0.01377783
6523.00   1.10354924   0.01490100
6524.00   1.12463927   0.01503484
6525.00   1.13426101   0.01411600
6526.00   1.16089189   0.01378001
6527.00   1.20316267   0.01391630
6528.00   1.25437415   0.01426679
6529.00   1.31039286   0.01467730
6530.00   1.37353611   0.01517991
6531.00   1.44094431   0.01598719
6532.00   1.52948797   0.01763083
6533.00   1.59075427   0.01812330
6534.00   1.61551678   0.01719846
6535.00   1.63812852   0.01613393
6536.00   1.69158053   0.01641512
6537.00   1.76492059   0.01763030
6538.00   1.82561183   0.01769373
6539.00   1.86888242   0.01675178
6540.00   1.94140792   0.01645950
6541.00   2.05828547   0.01673671
6542.00   2.17580247   0.01736453
6543.00   2.24644232   0.01833485
6544.00   2.28315735   0.01978102
6545.00   2.34299707   0.02039895
6546.00   2.41836858   0.02070262
6547.00   2.47633243   0.02060682
6548.00   2.51347685   0.01992163
6549.00   2.54387140   0.01900659
6550.00   2.57934737   0.01831305
6551.00   2.60986733   0.01754419
6552.00   2.66390443   0.01732054
6553.00   2.75075293   0.01775626
6554.00   2.81566191   0.01798103
6555.00   2.85558581   0.01793911
6556.00   2.88612461   0.01790534
6557.00   2.92044830   0.01813199
6558.00   2.95059919   0.01848860
6559.00   2.98871326   0.01904392
6560.00   3.04349399   0.02019060
6561.00   3.07803464   0.02064312
6562.00   3.08314037   0.02006235
6563.00   3.08147049   0.01932837
6564.00   3.10025764   0.01969275
6565.00   3.12556624   0.02079369
6566.00   3.16903400   0.02161564
6567.00   3.25604248   0.02272261
6568.00   3.30222416   0.02339174
6569.00   3.29642415   0.02355732
6570.00   3.26747012   0.02349002
6571.00   3.24364901   0.02353080
6572.00   3.19572878   0.02378904
6573.00   3.20577240   0.02306547
6574.00   3.28056955   0.02083444
6575.00   3.32625675   0.01935648
6576.00   3.33736897   0.01920394
6577.00   3.32921576   0.01958518
6578.00   3.30648375   0.01955066
6579.00   3.25297236   0.01948040
6580.00   3.23198247   0.01942252
6581.00   3.24135804   0.01926024
6582.00   3.23091555   0.01928243
6583.00   3.18424320   0.01955334
6584.00   3.13071656   0.01994757
6585.00   3.11455393   0.02022075
6586.00   3.10101485   0.01973812
6587.00   3.16052341   0.02153799
6588.00   3.31285787   0.02560163
6589.00   3.44094586   0.02809935
6590.00   3.56974769   0.02940600
6591.00   3.65736842   0.02969766
6592.00   3.56105924   0.02790935
6593.00   3.23203731   0.02216242
6594.00   3.09025192   0.01932853
6595.00   3.02833533   0.01834186
6596.00   2.98501348   0.01803252
6597.00   2.95881772   0.01857921
6598.00   2.94973397   0.01964936
6599.00   2.93263030   0.01998051
6600.00   2.90614271   0.01996449
6601.00   2.91278601   0.02008712
6602.00   2.96752000   0.02041625
6603.00   2.99351954   0.02035842
6604.00   2.97259569   0.01962577
6605.00   2.92663932   0.01854567
6606.00   2.88109207   0.01796605
6607.00   2.79903007   0.01759656
6608.00   2.77831793   0.01741418
6609.00   2.81001997   0.01754661
6610.00   2.83777022   0.01769198
6611.00   2.86110139   0.01778455
6612.00   2.87599683   0.01789044
6613.00   2.83468652   0.01804829
6614.00   2.71479559   0.01809540
6615.00   2.65713215   0.01853788
6616.00   2.62683010   0.01964186
6617.00   2.60367465   0.02020671
6618.00   2.58704901   0.01969159
6619.00   2.57578659   0.01869569
6620.00   2.55037951   0.01891370
6621.00   2.51695991   0.02038574
6622.00   2.47960687   0.02077433
6623.00   2.42288065   0.02087055
6624.00   2.38443565   0.02051218
6625.00   2.38349724   0.01924164
6626.00   2.40159202   0.01740445
6627.00   2.39024758   0.01725432
6628.00   2.35829735   0.01915483
6629.00   2.33626747   0.01929679
6630.00   2.31688690   0.01843386
6631.00   2.29630089   0.01747670
6632.00   2.26924205   0.01665131
6633.00   2.24083996   0.01582583
6634.00   2.23443484   0.01552855
6635.00   2.26245165   0.01590872
6636.00   2.25575852   0.01594814
6637.00   2.22172379   0.01591145
6638.00   2.19026589   0.01583941
6639.00   2.17367101   0.01557962
6640.00   2.16316128   0.01526817
6641.00   2.14626265   0.01590397
6642.00   2.12593746   0.01797655
6643.00   2.10730910   0.01840239
6644.00   2.08927751   0.01757640
6645.00   2.07122421   0.01672838
6646.00   2.05091572   0.01644906
6647.00   2.03005052   0.01639138
6648.00   2.02179623   0.01622706
6649.00   2.02531981   0.01609222
6650.00   2.02799797   0.01592917
6651.00   2.04047894   0.01561569
6652.00   2.04402041   0.01549090
6653.00   2.02589321   0.01582597
6654.00   1.99385893   0.01643823
6655.00   1.97756279   0.01654900
6656.00   1.97163200   0.01638436
6657.00   1.95949113   0.01613456
6658.00   1.94538629   0.01562330
6659.00   1.92851913   0.01514408
6660.00   1.90689516   0.01487605
6661.00   1.88149059   0.01473018
6662.00   1.86265147   0.01463115
6663.00   1.84584188   0.01466527
6664.00   1.83393610   0.01464958
6665.00   1.83175063   0.01463757
6666.00   1.82608199   0.01459863
6667.00   1.80923331   0.01445924
6668.00   1.78536630   0.01424205
6669.00   1.75754464   0.01438475
6670.00   1.71649778   0.01501863
6671.00   1.68818820   0.01521835
6672.00   1.66135442   0.01501702
6673.00   1.64984787   0.01482154
6674.00   1.66962838   0.01487509
6675.00   1.71542585   0.01505066
6676.00   1.72754407   0.01529969
6677.00   1.72417808   0.01587242
6678.00   1.71270347   0.01601482
6679.00   1.68281162   0.01575750
6680.00   1.65519285   0.01538675
6681.00   1.64693904   0.01505392
6682.00   1.65105903   0.01465599
6683.00   1.64229131   0.01448965
6684.00   1.62347651   0.01443887
6685.00   1.61256444   0.01457358
6686.00   1.61177397   0.01510993
6687.00   1.60863435   0.01549995
6688.00   1.59302866   0.01530833
6689.00   1.56873858   0.01469217
6690.00   1.54993510   0.01425927
6691.00   1.52463853   0.01363478
6692.00   1.51505458   0.01333200
6693.00   1.52698290   0.01344177
6694.00   1.53923571   0.01361469
6695.00   1.53304875   0.01354681
6696.00   1.51498616   0.01333424
6697.00   1.50879693   0.01344919
6698.00   1.50901258   0.01373484
6699.00   1.50807095   0.01416709
6700.00   1.51205063   0.01496534
6701.00   1.51011789   0.01560246
6702.00   1.48761165   0.01561845
6703.00   1.44490647   0.01518720
6704.00   1.43457460   0.01482055
6705.00   1.45458138   0.01415385
6706.00   1.45828831   0.01373644
6707.00   1.44650865   0.01355536
6708.00   1.43077850   0.01352922
6709.00   1.42016208   0.01363953
6710.00   1.41207838   0.01394757
6711.00   1.39515424   0.01405569
6712.00   1.36385393   0.01406773
6713.00   1.34602892   0.01407189
6714.00   1.33894932   0.01394678
6715.00   1.34154081   0.01392364
6716.00   1.35921180   0.01438480
6717.00   1.39950395   0.01539159
6718.00   1.39896035   0.01523819
6719.00   1.35901082   0.01385414
6720.00   1.33687961   0.01299027
6721.00   1.33463395   0.01276576
6722.00   1.33656430   0.01277951
6723.00   1.32973289   0.01271472
6724.00   1.32051492   0.01271162
6725.00   1.30509782   0.01277456
6726.00   1.27135444   0.01289487
6727.00   1.25866878   0.01308939
6728.00   1.27504003   0.01351340
6729.00   1.29841208   0.01384439
6730.00   1.30324674   0.01360821
6731.00   1.29885817   0.01274597
6732.00   1.29452097   0.01256700
6733.00   1.28199863   0.01281805
6734.00   1.27667570   0.01306502
6735.00   1.28300238   0.01342624
6736.00   1.29064620   0.01372310
6737.00   1.28504837   0.01358899
6738.00   1.26631439   0.01295227
6739.00   1.26448643   0.01290559
6740.00   1.27661014   0.01338710
6741.00   1.28366721   0.01358236
6742.00   1.28127491   0.01332285
6743.00   1.27906132   0.01299798
6744.00   1.29143977   0.01318938
6745.00   1.32330954   0.01390946
6746.00   1.32424545   0.01392796
6747.00   1.30358768   0.01341664
6748.00   1.28002357   0.01299296
6749.00   1.24943221   0.01268254
6750.00   1.21821463   0.01243117
6751.00   1.20286727   0.01229490
6752.00   1.19594729   0.01228344
6753.00   1.20042169   0.01227882
6754.00   1.22889614   0.01234787
6755.00   1.24306130   0.01240588
6756.00   1.23157287   0.01241749
6757.00   1.21409714   0.01244407
6758.00   1.22273386   0.01260297
6759.00   1.26086032   0.01297106
6760.00   1.26139081   0.01301999
6761.00   1.23673022   0.01279035
6762.00   1.21033275   0.01263338
6763.00   1.18059945   0.01247945
6764.00   1.15054512   0.01245334
6765.00   1.13524508   0.01301670
6766.00   1.12461317   0.01452573
6767.00   1.13467145   0.01462239
6768.00   1.17463410   0.01341686
6769.00   1.20535350   0.01264266
6770.00   1.22183263   0.01292028
6771.00   1.22988045   0.01352052
6772.00   1.22802675   0.01337417
6773.00   1.21014047   0.01253536
6774.00   1.20119154   0.01231799
6775.00   1.19750762   0.01239655
6776.00   1.18829811   0.01261229
6777.00   1.16480672   0.01297693
6778.00   1.13885736   0.01344255
6779.00   1.14135396   0.01383029
6780.00   1.17750609   0.01454139
6781.00   1.18631124   0.01439869
6782.00   1.18300164   0.01327488
6783.00   1.17631292   0.01237357
6784.00   1.16631353   0.01204891
6785.00   1.15368128   0.01207732
6786.00   1.14640033   0.01244102
6787.00   1.14104891   0.01370036
6788.00   1.13894641   0.01382716
6789.00   1.14014983   0.01305011
6790.00   1.14344883   0.01242591
6791.00   1.15055621   0.01225954
6792.00   1.15923560   0.01234871
6793.00   1.15942454   0.01273421
6794.00   1.14922273   0.01385246
6795.00   1.14754963   0.01408068
6796.00   1.14257181   0.01345254
6797.00   1.15080512   0.01320987
6798.00   1.18976951   0.01408891
6799.00   1.24149394   0.01531140
6800.00   1.23653793   0.01510992
6801.00   1.16634333   0.01332612
6802.00   1.14433885   0.01252304
6803.00   1.14480698   0.01203186
6804.00   1.15129375   0.01191340
6805.00   1.16084826   0.01236287
6806.00   1.17492926   0.01315580
6807.00   1.18156385   0.01335955
6808.00   1.18536294   0.01327760
6809.00   1.18557823   0.01310595
6810.00   1.18480182   0.01265879
6811.00   1.17690814   0.01224781
6812.00   1.15563238   0.01200592
6813.00   1.12594664   0.01185749
6814.00   1.11281097   0.01179815
6815.00   1.10748577   0.01182752
6816.00   1.10902262   0.01195967
6817.00   1.12310851   0.01232429
6818.00   1.13599885   0.01256929
6819.00   1.14190888   0.01251072
6820.00   1.14446557   0.01227268
6821.00   1.14426410   0.01220854
6822.00   1.14301038   0.01208345
6823.00   1.13450241   0.01225206
6824.00   1.11305964   0.01283887
6825.00   1.09659064   0.01327703
6826.00   1.09403861   0.01322456
6827.00   1.10009909   0.01289384
6828.00   1.10985076   0.01316425
6829.00   1.13476384   0.01416213
6830.00   1.14363945   0.01440440
6831.00   1.14221203   0.01409186
6832.00   1.13416612   0.01363165
6833.00   1.11811519   0.01317622
6834.00   1.09433222   0.01261839
6835.00   1.08476830   0.01232851
6836.00   1.07939005   0.01228196
6837.00   1.08566916   0.01219823
6838.00   1.10800970   0.01210857
6839.00   1.13189459   0.01208794
6840.00   1.15232098   0.01218277
6841.00   1.17319119   0.01236875
6842.00   1.16711462   0.01256948
6843.00   1.12110472   0.01285726
6844.00   1.10608184   0.01307775
6845.00   1.11431134   0.01335085
6846.00   1.12981153   0.01347345
6847.00   1.14760494   0.01326900
6848.00   1.17220807   0.01279489
6849.00   1.17265773   0.01247815
6850.00   1.14478087   0.01209910
6851.00   1.13487005   0.01189184
6852.00   1.14122629   0.01177832
6853.00   1.14740396   0.01185775
6854.00   1.14248180   0.01229040
6855.00   1.13141119   0.01302862
6856.00   1.12219083   0.01322521
6857.00   1.10575640   0.01309963
6858.00   1.10180402   0.01292543
6859.00   1.11281347   0.01245804
6860.00   1.12532258   0.01212383
6861.00   1.12789154   0.01235155
6862.00   1.12441540   0.01296645
6863.00   1.13328195   0.01345088
6864.00   1.15543377   0.01405939
6865.00   1.16893840   0.01452266
6866.00   1.18364096   0.01497428
6867.00   1.18545032   0.01524202
6868.00   1.15603530   0.01510608
6869.00   1.09759521   0.01457926
6870.00   1.06841815   0.01445005
6871.00   1.05002999   0.01448569
6872.00   1.03951967   0.01461268
6873.00   1.03742421   0.01499828
6874.00   1.04348707   0.01528941
6875.00   1.05936587   0.01513681
6876.00   1.08789849   0.01465400
6877.00   1.10140014   0.01418417
6878.00   1.10917723   0.01343803
6879.00   1.11073971   0.01289245
6880.00   1.09819829   0.01251502
6881.00   1.08840120   0.01230149
6882.00   1.10276330   0.01229346
6883.00   1.13920081   0.01249686
6884.00   1.14504945   0.01276646
6885.00   1.13402760   0.01329342
6886.00   1.11668503   0.01361390
6887.00   1.08343232   0.01377682
6888.00   1.05164540   0.01381650
6889.00   1.04441535   0.01369368
6890.00   1.05594754   0.01333899
6891.00   1.05823565   0.01326087
6892.00   1.05616617   0.01350655
6893.00   1.06220770   0.01345555
6894.00   1.08187699   0.01289224
6895.00   1.10177207   0.01233191
6896.00   1.10408783   0.01249234
6897.00   1.09009373   0.01319528
6898.00   1.09656537   0.01363947
6899.00   1.12493134   0.01433482
6900.00   1.13621747   0.01453998
6901.00   1.12399113   0.01405932
6902.00   1.10650086   0.01339008
6903.00   1.10523701   0.01326200
6904.00   1.11537850   0.01355147
6905.00   1.11398864   0.01336079
6906.00   1.10095859   0.01270711
6907.00   1.09790254   0.01232899
6908.00   1.11078417   0.01233095
6909.00   1.12605119   0.01248428
6910.00   1.12628317   0.01257188
6911.00   1.12009740   0.01275015
6912.00   1.10137796   0.01270276
6913.00   1.05330503   0.01242346
6914.00   1.02990901   0.01221090
6915.00   1.04096711   0.01207548
6916.00   1.06494284   0.01198495
6917.00   1.07504213   0.01193660
6918.00   1.08018601   0.01187130
6919.00   1.09025753   0.01206501
6920.00   1.10847020   0.01250179
6921.00   1.11681807   0.01294218
6922.00   1.10933256   0.01353490
6923.00   1.09703243   0.01402092
6924.00   1.09716630   0.01384524
6925.00   1.10463476   0.01284245
6926.00   1.11121213   0.01262284
6927.00   1.12834442   0.01303875
6928.00   1.13097131   0.01315223
6929.00   1.10915565   0.01276097
6930.00   1.07948029   0.01219175
6931.00   1.07095218   0.01195033
6932.00   1.07563818   0.01183971
6933.00   1.07860661   0.01189590
6934.00   1.09114921   0.01213629
6935.00   1.09463453   0.01247052
6936.00   1.08052051   0.01303098
6937.00   1.06180167   0.01357854
6938.00   1.06435728   0.01354807
6939.00   1.08958042   0.01280713
6940.00   1.09287333   0.01273800
6941.00   1.08401358   0.01303698
6942.00   1.07373929   0.01338565
6943.00   1.05806029   0.01390775
6944.00   1.04354095   0.01438711
6945.00   1.05419898   0.01412894
6946.00   1.09861600   0.01284944
6947.00   1.11105680   0.01245623
6948.00   1.10883117   0.01269660
6949.00   1.09926057   0.01279545
6950.00   1.07710481   0.01252047
6951.00   1.05028617   0.01213196
6952.00   1.04843175   0.01207962
6953.00   1.07171488   0.01209134
6954.00   1.07960236   0.01253208
6955.00   1.08568561   0.01381637
6956.00   1.08631623   0.01438590
6957.00   1.07800996   0.01372355
6958.00   1.06497586   0.01238209
6959.00   1.06017125   0.01187133
6960.00   1.06004274   0.01183196
6961.00   1.06003070   0.01176344
6962.00   1.06616664   0.01185240
6963.00   1.06604826   0.01201105
6964.00   1.05217743   0.01230310
6965.00   1.03227818   0.01263420
6966.00   1.02876866   0.01257013
6967.00   1.03568935   0.01191900
6968.00   1.04500520   0.01184515
6969.00   1.07034147   0.01198198
6970.00   1.08207130   0.01241744
6971.00   1.06249702   0.01344450
6972.00   1.02776527   0.01463637
6973.00   1.02750385   0.01453619
6974.00   1.05690777   0.01278894
6975.00   1.07140684   0.01230947
6976.00   1.08872771   0.01266423
6977.00   1.09511721   0.01305550
6978.00   1.08279800   0.01332058
6979.00   1.05793202   0.01355485
6980.00   1.03838670   0.01330070
6981.00   1.00389564   0.01228008
6982.00   0.99948621   0.01184977
6983.00   1.02623761   0.01178106
6984.00   1.05081356   0.01182868
6985.00   1.06076741   0.01193776
6986.00   1.06415963   0.01213503
6987.00   1.06075490   0.01220346
6988.00   1.04413748   0.01205211
6989.00   1.03542721   0.01223527
6990.00   1.03071260   0.01286041
6991.00   1.02635622   0.01326269
6992.00   1.01896214   0.01310811
6993.00   1.01072979   0.01261266
6994.00   1.01544273   0.01242784
6995.00   1.03490889   0.01225555
6996.00   1.04746532   0.01232853
6997.00   1.06354642   0.01277407
6998.00   1.07024848   0.01311885
6999.00   1.05427539   0.01308037
7000.00   1.02287388   0.01282514
7001.00   1.02624166   0.01295939
7002.00   1.06367612   0.01360680
7003.00   1.08083010   0.01366339
7004.00   1.08776879   0.01318602
7005.00   1.09008610   0.01264156
7006.00   1.08703339   0.01226502
7007.00   1.07835186   0.01192678
7008.00   1.08671844   0.01185006
7009.00   1.12112963   0.01215342
7010.00   1.12795007   0.01223376
7011.00   1.10618114   0.01216356
7012.00   1.08561981   0.01208286
7013.00   1.08492565   0.01206919
7014.00   1.09484196   0.01208339
7015.00   1.09816766   0.01207543
7016.00   1.10347176   0.01204807
7017.00   1.10247970   0.01204696
7018.00   1.09210348   0.01205550
7019.00   1.08346665   0.01209122
7020.00   1.08430898   0.01218562
7021.00   1.09094918   0.01233271
7022.00   1.09799480   0.01235766
7023.00   1.11432600   0.01213148
7024.00   1.11798537   0.01224522
7025.00   1.10935938   0.01283012
7026.00   1.09690857   0.01329540
7027.00   1.08570600   0.01319522
7028.00   1.07288539   0.01268606
7029.00   1.06197274   0.01264844
7030.00   1.04796290   0.01286650
7031.00   1.04264855   0.01309418
7032.00   1.04602242   0.01355385
7033.00   1.05358243   0.01382578
7034.00   1.06181633   0.01346962
7035.00   1.07199132   0.01253664
7036.00   1.08856881   0.01232694
7037.00   1.12553310   0.01264779
7038.00   1.13539910   0.01282617
7039.00   1.11502957   0.01296575
7040.00   1.08751547   0.01307228
7041.00   1.06899178   0.01309401
7042.00   1.04897237   0.01302766
7043.00   1.05066228   0.01311490
7044.00   1.08145916   0.01326557
7045.00   1.09542632   0.01350245
7046.00   1.09543490   0.01399375
7047.00   1.08899868   0.01435124
7048.00   1.07849526   0.01415316
7049.00   1.05948341   0.01345302
7050.00   1.05644071   0.01322878
7051.00   1.07117403   0.01330329
7052.00   1.07395065   0.01327867
7053.00   1.06296813   0.01325496
7054.00   1.04962778   0.01312338
7055.00   1.04256141   0.01263887
7056.00   1.03492272   0.01167016
7057.00   1.04588604   0.01155439
7058.00   1.08576524   0.01216923
7059.00   1.10508192   0.01263099
7060.00   1.10249066   0.01311943
7061.00   1.09135914   0.01347194
7062.00   1.08120644   0.01338146
7063.00   1.06380832   0.01285513
7064.00   1.06292951   0.01266226
7065.00   1.07284915   0.01228243
7066.00   1.08774328   0.01253740
7067.00   1.11286259   0.01372270
7068.00   1.13879514   0.01492796
7069.00   1.15285182   0.01533157
7070.00   1.16285062   0.01539777
7071.00   1.15628004   0.01496177
7072.00   1.12865555   0.01342196
7073.00   1.10487163   0.01246096
7074.00   1.08237875   0.01234832
7075.00   1.06274724   0.01260637
7076.00   1.05221915   0.01279768
7077.00   1.04833484   0.01319164
7078.00   1.05004704   0.01333434
7079.00   1.06422317   0.01327164
7080.00   1.07191265   0.01330534
7081.00   1.06926680   0.01350353
7082.00   1.06524062   0.01370653
7083.00   1.07170033   0.01371567
7084.00   1.08760619   0.01359984
7085.00   1.09437752   0.01343355
7086.00   1.09855866   0.01309714
7087.00   1.09819484   0.01285253
7088.00   1.09331298   0.01271793
7089.00   1.08397877   0.01265759
7090.00   1.06912971   0.01268345
7091.00   1.04406774   0.01292763
7092.00   1.03155351   0.01278090
7093.00   1.01936173   0.01216723
7094.00   1.02198136   0.01180601
7095.00   1.05089712   0.01187802
7096.00   1.08606982   0.01209798
7097.00   1.08972752   0.01208419
7098.00   1.06913030   0.01188345
7099.00   1.05794191   0.01194812
7100.00   1.04341638   0.01214298
7101.00   1.03199351   0.01244340
7102.00   1.02039647   0.01293133
7103.00   1.01404881   0.01344690
7104.00   1.02912104   0.01367189
7105.00   1.07928729   0.01377432
7106.00   1.08469009   0.01365102
7107.00   1.05204928   0.01298784
7108.00   1.03107011   0.01271638
7109.00   1.03089213   0.01309075
7110.00   1.03919375   0.01376101
7111.00   1.04419053   0.01432336
7112.00   1.05113447   0.01540935
7113.00   1.05767274   0.01520551
7114.00   1.07221651   0.01342748
7115.00   1.07363558   0.01215735
7116.00   1.04984629   0.01230380
7117.00   1.01723683   0.01300443
7118.00   1.01389515   0.01293890
7119.00   1.04018688   0.01223925
7120.00   1.04151368   0.01226944
7121.00   1.02634120   0.01282836
7122.00   1.01665604   0.01331970
7123.00   1.02039957   0.01363122
7124.00   1.02850282   0.01389393
7125.00   1.02364373   0.01419573
7126.00   0.99976486   0.01473380
7127.00   1.00076187   0.01470761
7128.00   1.02152967   0.01422323
7129.00   1.04031897   0.01362566
7130.00   1.05150747   0.01283753
7131.00   1.06013203   0.01194870
7132.00   1.06947279   0.01179991
7133.00   1.07655203   0.01216836
7134.00   1.08718860   0.01284472
7135.00   1.11010957   0.01448941
7136.00   1.11762869   0.01528086
7137.00   1.09377205   0.01458602
7138.00   1.05422699   0.01300751
7139.00   1.04426289   0.01241604
7140.00   1.05500376   0.01220146
7141.00   1.06003332   0.01233907
7142.00   1.06976402   0.01327520
7143.00   1.07675636   0.01380017
7144.00   1.08042347   0.01342836
7145.00   1.08062410   0.01257062
7146.00   1.06748855   0.01237329
7147.00   1.03198218   0.01271327
7148.00   1.01577365   0.01268022
7149.00   1.00888681   0.01233083
7150.00   1.00756931   0.01215536
7151.00   1.01005709   0.01246595
7152.00   1.01768231   0.01300626
7153.00   1.03411567   0.01301196
7154.00   1.07656801   0.01255195
7155.00   1.08448029   0.01231706
7156.00   1.05890977   0.01207578
7157.00   1.03745365   0.01196535
7158.00   1.03601086   0.01199392
7159.00   1.04428864   0.01216494
7160.00   1.05365324   0.01281106
7161.00   1.07864189   0.01440589
7162.00   1.08219206   0.01479159
7163.00   1.06801379   0.01425455
7164.00   1.04993832   0.01358538
7165.00   1.02949107   0.01304098
7166.00   1.00579870   0.01246623
7167.00   1.00916004   0.01269596
7168.00   1.04898608   0.01413110
7169.00   1.06043434   0.01441907
7170.00   1.05330884   0.01380919
7171.00   1.04119217   0.01314371
7172.00   1.02775753   0.01288761
7173.00   1.01058543   0.01279944
7174.00   1.00668240   0.01274603
7175.00   1.01368737   0.01280644
7176.00   1.02007806   0.01288321
7177.00   1.02967095   0.01305556
7178.00   1.03944767   0.01318132
7179.00   1.04809844   0.01314893
7180.00   1.05652809   0.01301074
7181.00   1.05983472   0.01304359
7182.00   1.06365919   0.01295703
7183.00   1.05554664   0.01336208
7184.00   1.02555966   0.01448268
7185.00   1.00349379   0.01534302
7186.00   1.01252329   0.01543072
7187.00   1.04268575   0.01504577
7188.00   1.04993749   0.01464108
7189.00   1.03847647   0.01315239
7190.00   1.04268456   0.01334974
7191.00   1.06577730   0.01580700
7192.00   1.08464658   0.01752833
7193.00   1.08041918   0.01692817
7194.00   1.05998027   0.01460370
7195.00   1.06242573   0.01377930
7196.00   1.08585775   0.01356628
7197.00   1.09473336   0.01369979
7198.00   1.09403706   0.01466544
7199.00   1.08699656   0.01539152
7200.00   1.07267487   0.01505500
7201.00   1.04965377   0.01392637
7202.00   1.03865683   0.01337871
7203.00   1.03129816   0.01281303
7204.00   1.03187358   0.01272694
7205.00   1.04316807   0.01338546
7206.00   1.05736482   0.01399973
7207.00   1.06934834   0.01396179
7208.00   1.08318651   0.01351488
7209.00   1.08431232   0.01327584
7210.00   1.06731725   0.01295911
7211.00   1.06363618   0.01280794
7212.00   1.07778394   0.01291180
7213.00   1.08962798   0.01300699
7214.00   1.07963252   0.01283427
7215.00   1.05262291   0.01245774
7216.00   1.04393232   0.01229266
7217.00   1.04715765   0.01190371
7218.00   1.04622841   0.01220843
7219.00   1.03959119   0.01352685
7220.00   1.03512669   0.01470492
7221.00   1.04059815   0.01484852
7222.00   1.05423152   0.01430698
7223.00   1.06323397   0.01406749
7224.00   1.07799053   0.01367813
7225.00   1.07992160   0.01351701
7226.00   1.06126022   0.01362928
7227.00   1.04267001   0.01384239
7228.00   1.04787326   0.01397979
7229.00   1.07124174   0.01407060
7230.00   1.08054197   0.01443316
7231.00   1.08794224   0.01523984
7232.00   1.08844745   0.01561115
7233.00   1.07436049   0.01556531
7234.00   1.06226647   0.01529754
7235.00   1.07510233   0.01488855
7236.00   1.11118150   0.01408260
7237.00   1.12170219   0.01403354
7238.00   1.12669730   0.01437146
7239.00   1.11352849   0.01510485
7240.00   1.06614053   0.01652152
7241.00   1.01809788   0.01785625
7242.00   1.01789308   0.01829636
7243.00   1.05891275   0.01821606
7244.00   1.06471014   0.01795352
7245.00   1.05690861   0.01695668
7246.00   1.04378271   0.01645194
7247.00   1.01560283   0.01670103
7248.00   0.98987067   0.01712978
7249.00   0.99621266   0.01709840
7250.00   1.02881384   0.01687195
7251.00   1.05428708   0.01648803
7252.00   1.09452569   0.01578551
7253.00   1.11686921   0.01513257
7254.00   1.11684036   0.01452916
7255.00   1.10534871   0.01395807
7256.00   1.09340274   0.01345471
7257.00   1.07032669   0.01289811
7258.00   1.06422591   0.01283061
7259.00   1.07204199   0.01321839
7260.00   1.07722187   0.01368824
7261.00   1.07882464   0.01433641
7262.00   1.07927501   0.01497961
7263.00   1.07907343   0.01525507
7264.00   1.07721281   0.01537514
7265.00   1.07717693   0.01516113
7266.00   1.07628059   0.01442052
7267.00   1.07904577   0.01379103
7268.00   1.08974826   0.01331516
7269.00   1.10110927   0.01295450
7270.00   1.09801996   0.01279853
7271.00   1.07650554   0.01258694
7272.00   1.07790315   0.01327861
7273.00   1.10100591   0.01493967
7274.00   1.11334777   0.01617674
7275.00   1.11199868   0.01713340
7276.00   1.10105336   0.01775540
7277.00   1.07749116   0.01742235
7278.00   1.02452815   0.01564356
7279.00   1.01232374   0.01510589
7280.00   1.03580236   0.01541803
7281.00   1.04932904   0.01556195
7282.00   1.04228187   0.01537598
7283.00   1.02872133   0.01506119
7284.00   1.02685118   0.01472790
7285.00   1.02927053   0.01408987
7286.00   1.03703988   0.01402841
7287.00   1.05373132   0.01458484
7288.00   1.06868613   0.01492046
7289.00   1.08197021   0.01481178
7290.00   1.09273887   0.01454539
7291.00   1.09270883   0.01459593
7292.00   1.08070135   0.01497694
7293.00   1.07227826   0.01498462
7294.00   1.05681527   0.01483194
7295.00   1.05030227   0.01451842
7296.00   1.06034505   0.01385619
7297.00   1.07818055   0.01304742
7298.00   1.08333802   0.01299666
7299.00   1.07916486   0.01373699
7300.00   1.08081329   0.01403194
7301.00   1.07906044   0.01423889
7302.00   1.08637834   0.01441398
7303.00   1.11228585   0.01458879
7304.00   1.14628446   0.01473132
7305.00   1.15559959   0.01475327
7306.00   1.15091002   0.01473792
7307.00   1.13760722   0.01452071
7308.00   1.09837377   0.01396865
7309.00   1.07466125   0.01352356
7310.00   1.08454919   0.01323557
7311.00   1.11203110   0.01312097
7312.00   1.12224638   0.01369831
7313.00   1.12640297   0.01510935
7314.00   1.13014698   0.01597321
7315.00   1.13978410   0.01685169
7316.00   1.13478112   0.01738872
7317.00   1.09877086   0.01740641
7318.00   1.04614234   0.01708585
7319.00   1.03341961   0.01696689
7320.00   1.04289985   0.01720331
7321.00   1.06478417   0.01664049
7322.00   1.11666977   0.01496910
7323.00   1.16024745   0.01347982
7324.00   1.17994249   0.01296467
7325.00   1.18633878   0.01306442
7326.00   1.18860173   0.01325207
7327.00   1.18403065   0.01384356
7328.00   1.17062354   0.01437434
7329.00   1.14327645   0.01515398
7330.00   1.11617982   0.01567323
7331.00   1.09059811   0.01575209
7332.00   1.06617916   0.01552950
7333.00   1.07374215   0.01503161
7334.00   1.11952543   0.01354408
7335.00   1.14774477   0.01318320
7336.00   1.17933619   0.01389740
7337.00   1.19623363   0.01464439
7338.00   1.18562603   0.01502666
7339.00   1.15500593   0.01530621
7340.00   1.13157988   0.01549844
7341.00   1.09933209   0.01567808
7342.00   1.07875490   0.01560656
7343.00   1.06293344   0.01529174
7344.00   1.05716026   0.01483344
7345.00   1.06745112   0.01419063
7346.00   1.09092641   0.01333616
7347.00   1.10467851   0.01297777
7348.00   1.12208176   0.01307224
7349.00   1.12609875   0.01308159
7350.00   1.11128485   0.01308025
7351.00   1.09967005   0.01317288
7352.00   1.10624611   0.01343333
7353.00   1.12372756   0.01382147
7354.00   1.13051593   0.01411049
7355.00   1.12788928   0.01407336
7356.00   1.13542008   0.01467940
7357.00   1.15832555   0.01639456
7358.00   1.17484975   0.01742310
7359.00   1.16915393   0.01658869
7360.00   1.14828527   0.01419215
7361.00   1.13376331   0.01330625
7362.00   1.10982525   0.01337836
7363.00   1.10269880   0.01333482
7364.00   1.11152196   0.01327725
7365.00   1.12676251   0.01345358
7366.00   1.14806604   0.01409924
7367.00   1.17999673   0.01512088
7368.00   1.16731322   0.01547086
7369.00   1.10331655   0.01549846
7370.00   1.06699550   0.01533796
7371.00   1.04637766   0.01486718
7372.00   1.03728700   0.01427598
7373.00   1.04313552   0.01369803
7374.00   1.06567216   0.01301555
7375.00   1.06943393   0.01267008
7376.00   1.05951917   0.01266738
7377.00   1.05693948   0.01261270
7378.00   1.05912876   0.01250582
7379.00   1.06434309   0.01248871
7380.00   1.07428229   0.01265038
7381.00   1.09096587   0.01292581
7382.00   1.08953619   0.01345007
7383.00   1.06695914   0.01472792
7384.00   1.05774641   0.01497624
7385.00   1.06012690   0.01386638
7386.00   1.06718421   0.01265185
7387.00   1.07679355   0.01283672
7388.00   1.09378278   0.01392313
7389.00   1.08889616   0.01449464
7390.00   1.05871081   0.01535168
7391.00   1.04276872   0.01551492
7392.00   1.03779995   0.01464335
7393.00   1.04006791   0.01370081
7394.00   1.05053055   0.01397969
7395.00   1.07236969   0.01521051
7396.00   1.08097684   0.01514002
7397.00   1.08429301   0.01382042
7398.00   1.08265924   0.01325567
7399.00   1.07476866   0.01371701
7400.00   1.06323898   0.01431670
7401.00   1.05078351   0.01427211
7402.00   1.03514850   0.01384951
7403.00   1.02270746   0.01360783
7404.00   1.00593269   0.01319988
7405.00   1.00102043   0.01311728
7406.00   1.01152802   0.01355707
7407.00   1.02729917   0.01402431
7408.00   1.03799450   0.01393213
7409.00   1.05095255   0.01333239
7410.00   1.05043495   0.01338116
7411.00   1.03396332   0.01414769
7412.00   1.02369750   0.01431944
7413.00   1.01613367   0.01360401
7414.00   1.01483262   0.01274060
7415.00   1.03134096   0.01287168
7416.00   1.07379091   0.01388961
7417.00   1.07431710   0.01382847
7418.00   1.03165305   0.01288596
7419.00   1.01247883   0.01226994
7420.00   1.02467787   0.01209562
7421.00   1.04626548   0.01211590
7422.00   1.05461550   0.01213548
7423.00   1.06181359   0.01217936
7424.00   1.05560315   0.01251948
7425.00   1.02564001   0.01331663
7426.00   1.01288903   0.01378326
7427.00   1.02625120   0.01386179
7428.00   1.04673767   0.01377784
7429.00   1.04867780   0.01375519
7430.00   1.03694165   0.01368308
7431.00   1.03759289   0.01364182
7432.00   1.04726040   0.01370936
7433.00   1.05223680   0.01359196
7434.00   1.04926085   0.01310174
7435.00   1.04447603   0.01254444
7436.00   1.04678237   0.01254038
7437.00   1.05536759   0.01297810
7438.00   1.05824697   0.01328861
7439.00   1.05754960   0.01382684
7440.00   1.05779421   0.01407484
7441.00   1.06230748   0.01394814
7442.00   1.06555164   0.01360862
7443.00   1.05574059   0.01324750
7444.00   1.02660704   0.01259444
7445.00   1.02249789   0.01238181
7446.00   1.04161561   0.01259798
7447.00   1.05076623   0.01269075
7448.00   1.04029691   0.01251615
7449.00   1.02451515   0.01228611
7450.00   1.02714384   0.01235123
7451.00   1.05089045   0.01276351
7452.00   1.04942751   0.01278418
7453.00   1.02629948   0.01251486
7454.00   1.01088727   0.01230107
7455.00   1.00651455   0.01218666
7456.00   1.00983953   0.01213336
7457.00   1.02543521   0.01219189
7458.00   1.06303132   0.01230326
7459.00   1.08045912   0.01260391
7460.00   1.09952068   0.01319772
7461.00   1.09575450   0.01364169
7462.00   1.04797935   0.01386500
7463.00   0.98402280   0.01396646
7464.00   0.97956669   0.01400382
7465.00   1.02482843   0.01395412
7466.00   1.05225575   0.01382465
7467.00   1.09674966   0.01352344
7468.00   1.11924934   0.01328051
7469.00   1.09949732   0.01307731
7470.00   1.06026411   0.01296734
7471.00   1.05844367   0.01331033
7472.00   1.09233892   0.01432701
7473.00   1.09506965   0.01470254
7474.00   1.07693172   0.01487764
7475.00   1.06381273   0.01480516
7476.00   1.06654775   0.01423216
7477.00   1.07480741   0.01340994
7478.00   1.06662810   0.01362906
7479.00   1.03636456   0.01523045
7480.00   1.03005517   0.01538334
7481.00   1.03606772   0.01447607
7482.00   1.04988182   0.01368751
7483.00   1.07661462   0.01354179
7484.00   1.11029720   0.01367133
7485.00   1.11562836   0.01353314
7486.00   1.09493864   0.01308535
7487.00   1.08350551   0.01311568
7488.00   1.06663680   0.01362915
7489.00   1.05694544   0.01402923
7490.00   1.06312299   0.01416044
7491.00   1.07803774   0.01414028
7492.00   1.07600307   0.01386278
7493.00   1.06118762   0.01306348
7494.00   1.05059898   0.01266199
7495.00   1.03597879   0.01238365
7496.00   1.02684557   0.01236117
7497.00   1.02704227   0.01272748
7498.00   1.03406262   0.01335754
7499.00   1.04723907   0.01375543
7500.00   1.07986319   0.01436260
7501.00   1.08953762   0.01435174
7502.00   1.07671487   0.01362830
7503.00   1.06725919   0.01292391
7504.00   1.07432902   0.01263132
7505.00   1.08971572   0.01254253
7506.00   1.09721911   0.01249158
7507.00   1.10503149   0.01252256
7508.00   1.10535300   0.01269027
7509.00   1.09827781   0.01316809
7510.00   1.08821309   0.01347186
7511.00   1.07562590   0.01331161
7512.00   1.06011093   0.01284924
7513.00   1.05328751   0.01268997
7514.00   1.05639470   0.01268109
7515.00   1.05237448   0.01264784
7516.00   1.04115641   0.01261194
7517.00   1.03233993   0.01261789
7518.00   1.03211844   0.01267658
7519.00   1.03732681   0.01277879
7520.00   1.03759146   0.01300154
7521.00   1.03777552   0.01328302
7522.00   1.03392971   0.01371004
7523.00   1.02188313   0.01445035
7524.00   1.01361871   0.01501034
7525.00   1.01781523   0.01512789
7526.00   1.03044438   0.01496351
7527.00   1.03796983   0.01463798
7528.00   1.04432714   0.01378556
7529.00   1.05183613   0.01335097
7530.00   1.06263173   0.01324838
7531.00   1.07062006   0.01330874
7532.00   1.06949091   0.01345349
7533.00   1.06107008   0.01372612
7534.00   1.06714201   0.01401940
7535.00   1.09565926   0.01467577
7536.00   1.09857941   0.01472409
7537.00   1.07110012   0.01406795
7538.00   1.04469347   0.01331621
7539.00   1.04391706   0.01297132
7540.00   1.05908740   0.01282499
7541.00   1.05820024   0.01267648
7542.00   1.04972506   0.01263919
7543.00   1.04097581   0.01258443
7544.00   1.02251399   0.01244047
7545.00   1.01281226   0.01241839
7546.00   1.03178108   0.01274655
7547.00   1.07483435   0.01336298
7548.00   1.09155762   0.01358267
7549.00   1.09933710   0.01344164
7550.00   1.09669626   0.01357558
7551.00   1.07532775   0.01411725
7552.00   1.05404580   0.01453048
7553.00   1.05103648   0.01435151
7554.00   1.05955851   0.01370490
7555.00   1.06339633   0.01334936
7556.00   1.07921875   0.01272661
7557.00   1.07272983   0.01278405
7558.00   1.03003824   0.01380518
7559.00   0.99125504   0.01479861
7560.00   0.99888724   0.01502187
7561.00   1.04260314   0.01484542
7562.00   1.05307937   0.01448127
7563.00   1.04796493   0.01348611
7564.00   1.04285276   0.01287652
7565.00   1.03417158   0.01267323
7566.00   1.02543604   0.01267936
7567.00   1.02259934   0.01274399
7568.00   1.02463722   0.01290421
7569.00   1.02051747   0.01334879
7570.00   1.01266587   0.01442336
7571.00   1.00458872   0.01481261
7572.00   0.99653322   0.01446524
7573.00   0.98724401   0.01384434
7574.00   0.97322613   0.01338885
7575.00   0.94928741   0.01282807
7576.00   0.95555645   0.01259827
7577.00   1.00226498   0.01273739
7578.00   1.02076435   0.01276539
7579.00   1.00415385   0.01266864
7580.00   0.97800577   0.01255741
7581.00   0.96651870   0.01250278
7582.00   0.95493048   0.01241239
7583.00   0.96628505   0.01262368
7584.00   1.00761282   0.01301109
7585.00   1.03667438   0.01358090
7586.00   1.05261302   0.01456768
7587.00   1.06270170   0.01543734
7588.00   1.07375467   0.01549959
7589.00   1.09438431   0.01488623
7590.00   1.06636202   0.01458466
7591.00   0.98314118   0.01413948
7592.00   0.91742045   0.01395901
7593.00   0.85897762   0.01328718
7594.00   0.81991291   0.01352063
7595.00   0.83564675   0.01676477
7596.00   0.90148968   0.02144774
7597.00   0.96953893   0.02529073
7598.00   1.08126390   0.02999266
7599.00   1.16101968   0.03291911
7600.00   1.21829581   0.03441573
7601.00   1.24049234   0.03498994
7602.00   1.17997968   0.03471026
7603.00   1.00459039   0.03312616
7604.00   0.94359732   0.03202727
7605.00   0.93655533   0.03049937
7606.00   0.95132637   0.02950438
7607.00   1.00297105   0.02943767
7608.00   1.06640649   0.02971322
7609.00   1.07958567   0.02940877
7610.00   1.04910958   0.02915026
7611.00   1.05245388   0.02782934
7612.00   1.07156909   0.02490076
7613.00   1.08957648   0.02224611
7614.00   1.11120224   0.02015608
7615.00   1.12855327   0.01852865
7616.00   1.11800218   0.01787003
7617.00   1.08922172   0.01890326
7618.00   1.04121470   0.01857712
7619.00   0.95071715   0.01712453
7620.00   0.88322151   0.01638227
7621.00   0.84559315   0.01703901
7622.00   0.82968652   0.01818942
7623.00   0.84181094   0.01853384
7624.00   0.89729601   0.01844182
7625.00   0.92889261   0.01857110
7626.00   0.97488278   0.01867757
7627.00   0.98658609   0.01887814
7628.00   0.92936671   0.01927333
7629.00   0.85087430   0.01971126
7630.00   0.86839116   0.01983291
7631.00   0.98317271   0.01966595
7632.00   1.02679527   0.01963615
7633.00   1.03991282   0.01959225
7634.00   1.05085742   0.01959446
7635.00   1.07165563   0.01973964
7636.00   1.08819008   0.01989868
7637.00   1.06969643   0.01967985
7638.00   0.99440068   0.01902489
7639.00   0.97833043   0.01861281
7640.00   1.00328326   0.01828289
7641.00   1.02441466   0.01792905
7642.00   1.02748382   0.01742367
7643.00   1.02620506   0.01690781
7644.00   1.04023182   0.01689821
7645.00   1.08510089   0.01768403
7646.00   1.08417475   0.01766146
7647.00   1.03503597   0.01706485
7648.00   1.00445962   0.01652171
7649.00   1.02470231   0.01626798
7650.00   1.06526327   0.01612215
7651.00   1.05007064   0.01584416
7652.00   0.96898258   0.01531711
7653.00   0.94944322   0.01521213
7654.00   0.97232503   0.01538055
7655.00   0.99236208   0.01572444
7656.00   0.99362594   0.01636801
7657.00   0.98825741   0.01713682
7658.00   0.98868281   0.01717201
7659.00   0.99200612   0.01652046
7660.00   0.99273318   0.01609620
7661.00   0.99486893   0.01558949
7662.00   0.99198049   0.01514211
7663.00   0.97510475   0.01483157
7664.00   0.95185339   0.01461412
7665.00   0.96278918   0.01440564
7666.00   1.02449334   0.01417502
7667.00   1.03473353   0.01413304
7668.00   1.00184369   0.01439184
7669.00   0.97260433   0.01452896
7670.00   0.96430874   0.01432236
7671.00   0.96605861   0.01391456
7672.00   0.98243558   0.01371447
7673.00   1.03555512   0.01351999
7674.00   1.04843581   0.01352586
7675.00   1.02827084   0.01378874
7676.00   1.00502026   0.01404154
7677.00   0.98994190   0.01420431
7678.00   0.97624671   0.01432829
7679.00   0.97404003   0.01419937
7680.00   0.98445547   0.01355207
7681.00   0.99231768   0.01345963
7682.00   1.00940847   0.01400963
7683.00   1.01556873   0.01436834
7684.00   0.99423069   0.01406613
7685.00   0.95412141   0.01334498
7686.00   0.94248652   0.01301556
7687.00   0.95053607   0.01271067
7688.00   0.95338821   0.01273955
7689.00   0.95737469   0.01322648
7690.00   0.96058214   0.01368484
7691.00   0.96256614   0.01387416
7692.00   0.96390510   0.01394041
7693.00   0.95555073   0.01391631
7694.00   0.93166810   0.01355313
7695.00   0.92066175   0.01359929
7696.00   0.91900033   0.01416279
7697.00   0.92098558   0.01459209
7698.00   0.92320275   0.01439179
7699.00   0.92719316   0.01374628
7700.00   0.93806309   0.01403973
7701.00   0.96492666   0.01553482
7702.00   0.97367936   0.01578898
7703.00   0.96348119   0.01488370
7704.00   0.95174956   0.01376890
7705.00   0.94951773   0.01308499
7706.00   0.95115823   0.01249129
7707.00   0.95573813   0.01267912
7708.00   0.96508712   0.01379942
7709.00   0.97450197   0.01454863
7710.00   0.98455048   0.01510070
7711.00   0.99586678   0.01565585
7712.00   1.01106679   0.01633607
7713.00   1.03108859   0.01709868
7714.00   1.03133917   0.01761253
7715.00   1.01654136   0.01804577
7716.00   0.99772352   0.01828406
7717.00   0.96703100   0.01839900
7718.00   0.93797702   0.01829372
7719.00   0.92000103   0.01781052
7720.00   0.90531671   0.01691379
7721.00   0.92332590   0.01633624
7722.00   0.98750424   0.01585597
7723.00   1.02659285   0.01544506
7724.00   1.04753292   0.01499481
7725.00   1.05833399   0.01477150
7726.00   1.06313598   0.01515889
7727.00   1.06182516   0.01614255
7728.00   1.03970158   0.01614989
7729.00   0.97719878   0.01524976
7730.00   0.94837594   0.01481587
7731.00   0.95368171   0.01495972
7732.00   0.97118729   0.01511687
7733.00   0.98623616   0.01474858
7734.00   1.01001728   0.01392484
7735.00   1.01139593   0.01372517
7736.00   0.99324185   0.01413513
7737.00   0.97763139   0.01418987
7738.00   0.96535724   0.01378254
7739.00   0.94944382   0.01335980
7740.00   0.92119581   0.01342443
7741.00   0.87742072   0.01386185
7742.00   0.86319292   0.01397595
7743.00   0.88757408   0.01379591
7744.00   0.87995642   0.01392039
7745.00   0.82174426   0.01438369
7746.00   0.76468366   0.01496288
7747.00   0.77367568   0.01550972
7748.00   0.84496272   0.01619400
7749.00   0.83486879   0.01639402
7750.00   0.75226378   0.01632416
7751.00   0.70761985   0.01599443
7752.00   0.70515460   0.01516499
7753.00   0.71897542   0.01422186
7754.00   0.73002899   0.01379952
7755.00   0.75274807   0.01355934
7756.00   0.75424993   0.01407669
7757.00   0.73065996   0.01594820
7758.00   0.72399056   0.01662794
7759.00   0.74055839   0.01587258
7760.00   0.76332033   0.01462304
7761.00   0.77221155   0.01417790
7762.00   0.77156860   0.01413468
7763.00   0.78199834   0.01401364
7764.00   0.79248869   0.01411956
7765.00   0.81597060   0.01402124
7766.00   0.86660522   0.01358981
7767.00   0.91736853   0.01307100
7768.00   0.92122227   0.01283149
7769.00   0.87653309   0.01265294
7770.00   0.88123733   0.01289982
7771.00   0.91849154   0.01351098
7772.00   0.94832921   0.01425379
7773.00   0.97000521   0.01537628
7774.00   0.98665476   0.01637666
7775.00   0.99390829   0.01638518
7776.00   0.98852348   0.01533769
7777.00   0.99233514   0.01518499
7778.00   1.00345600   0.01569324
7779.00   1.00793910   0.01583465
7780.00   1.00183594   0.01541470
7781.00   0.99197340   0.01476435
7782.00   0.98921663   0.01435573
7783.00   0.99370867   0.01399021
7784.00   0.98689795   0.01373951
7785.00   0.96044475   0.01348153
7786.00   0.95377511   0.01351952
7787.00   0.97892183   0.01402240
7788.00   1.01730442   0.01468940
7789.00   1.03903568   0.01498413
7790.00   1.06199682   0.01483815
7791.00   1.06269765   0.01541125
7792.00   1.04122782   0.01686875
7793.00   1.01731586   0.01759330
7794.00   0.98786283   0.01728722
7795.00   0.95852679   0.01645440
7796.00   0.95363742   0.01586797
7797.00   0.97655833   0.01507555
7798.00   0.97943658   0.01460389
7799.00   0.96880859   0.01432801
7800.00   0.96670657   0.01422080
7801.00   0.98609841   0.01434992
7802.00   1.00995433   0.01461711
7803.00   0.99686205   0.01471200
7804.00   0.93292296   0.01455246
7805.00   0.92434567   0.01486193
7806.00   0.95054245   0.01579777
7807.00   0.98030019   0.01627181
7808.00   1.01843905   0.01597903
7809.00   1.05575204   0.01527139
7810.00   1.03923309   0.01480127
7811.00   0.94483209   0.01416978
7812.00   0.92346883   0.01389129
7813.00   0.94781286   0.01396855
7814.00   0.96984714   0.01403130
7815.00   0.98061490   0.01385725
7816.00   0.98635644   0.01368135
7817.00   0.97382915   0.01417917
7818.00   0.92670333   0.01519054
7819.00   0.91594326   0.01620204
7820.00   0.92812562   0.01789354
7821.00   0.94368112   0.01875001
7822.00   0.96000004   0.01821491
7823.00   0.97801030   0.01683174
7824.00   0.98238128   0.01616273
7825.00   0.97362268   0.01578800
7826.00   0.96882814   0.01529075
7827.00   0.96551913   0.01466234
7828.00   0.95760483   0.01422877
7829.00   0.93568438   0.01421664
7830.00   0.90855706   0.01445669
7831.00   0.91953844   0.01438393
7832.00   0.98871201   0.01399322
7833.00   0.99814528   0.01397233
7834.00   0.95824283   0.01437713
7835.00   0.92394078   0.01458638
7836.00   0.91694719   0.01424174
7837.00   0.92252612   0.01359184
7838.00   0.92782444   0.01359919
7839.00   0.94600004   0.01420592
7840.00   0.94934022   0.01447329
7841.00   0.94275570   0.01463213
7842.00   0.93187189   0.01472955
7843.00   0.91416460   0.01481266
7844.00   0.89164263   0.01484999
7845.00   0.89546990   0.01460962
7846.00   0.92264575   0.01353686
7847.00   0.94685644   0.01364076
7848.00   0.98632258   0.01453175
7849.00   1.01177001   0.01584587
7850.00   1.00279760   0.01776632
7851.00   0.97129691   0.01998655
7852.00   0.96376705   0.02027482
7853.00   0.96989155   0.01881631
7854.00   0.97001922   0.01790616
7855.00   0.96736443   0.01683674
7856.00   0.96519655   0.01603672
7857.00   0.96539962   0.01592045
7858.00   0.96699256   0.01631436
7859.00   0.96620274   0.01656490
7860.00   0.95624405   0.01727340
7861.00   0.96289647   0.01723603
7862.00   0.99122792   0.01635407
7863.00   1.01554954   0.01543894
7864.00   1.01905882   0.01501631
7865.00   1.01007462   0.01483813
7866.00   1.00891566   0.01497892
7867.00   1.01058066   0.01548957
7868.00   1.00864697   0.01608984
7869.00   0.99968433   0.01710816
7870.00   0.99488199   0.01783672
7871.00   1.00516164   0.01780230
7872.00   1.02694488   0.01723116
7873.00   1.02471328   0.01694060
7874.00   0.99430603   0.01657466
7875.00   0.98683977   0.01637069
7876.00   1.00301111   0.01640228
7877.00   1.01877522   0.01640881
7878.00   1.01722419   0.01614987
7879.00   1.00580251   0.01568989
7880.00   0.99945188   0.01565129
7881.00   0.99067652   0.01602068
7882.00   0.98699033   0.01619279
7883.00   0.99106646   0.01628035
7884.00   0.99386293   0.01627601
7885.00   0.98741144   0.01608910
7886.00   0.97443950   0.01569620
7887.00   0.96748739   0.01574115
7888.00   0.96151388   0.01607673
7889.00   0.95905185   0.01648105
7890.00   0.96150047   0.01708283
7891.00   0.96485734   0.01764523
7892.00   0.96587855   0.01801395
7893.00   0.96628183   0.01832800
7894.00   0.96471304   0.01813967
7895.00   0.95425814   0.01721113
7896.00   0.95737159   0.01666288
7897.00   0.98239446   0.01660329
7898.00   1.00424290   0.01651357
7899.00   0.99729192   0.01586789
7900.00   0.96842837   0.01470337
7901.00   0.95683300   0.01420560
7902.00   0.95148635   0.01420747
7903.00   0.94659299   0.01417657
7904.00   0.94332343   0.01419963
7905.00   0.94075811   0.01423858
7906.00   0.93680090   0.01413089
7907.00   0.93102419   0.01377702
7908.00   0.93284237   0.01433467
7909.00   0.93941593   0.01556841
7910.00   0.95002168   0.01678524
7911.00   0.97069591   0.01842814
7912.00   0.98915851   0.01967715
7913.00   0.99051583   0.01960272
7914.00   0.98035479   0.01834141
7915.00   0.96531439   0.01788605
7916.00   0.93051112   0.01763113
7917.00   0.91370308   0.01751497
7918.00   0.92162389   0.01763576
7919.00   0.93375582   0.01781375
7920.00   0.92583179   0.01781827
7921.00   0.90104938   0.01777106
7922.00   0.90111828   0.01755929
7923.00   0.92103201   0.01720615
7924.00   0.93608224   0.01672621
7925.00   0.94973010   0.01580970
7926.00   0.95885772   0.01499934
7927.00   0.95364290   0.01529117
7928.00   0.93124658   0.01655611
7929.00   0.92820770   0.01713645
7930.00   0.93384469   0.01762731
7931.00   0.94532508   0.01790656
7932.00   0.97083008   0.01802652
7933.00   0.99529767   0.01792427
7934.00   0.99279505   0.01743026
7935.00   0.96669328   0.01639682
7936.00   0.95343667   0.01568545
7937.00   0.93634617   0.01480347
7938.00   0.93025136   0.01441721
7939.00   0.94006515   0.01473755
7940.00   0.95586628   0.01538526
7941.00   0.96375132   0.01590240
7942.00   0.97244322   0.01662168
7943.00   0.96856076   0.01686803
7944.00   0.94667929   0.01663889
7945.00   0.93422663   0.01659747
7946.00   0.93630320   0.01695642
7947.00   0.94311798   0.01731647
7948.00   0.94276047   0.01706271
7949.00   0.94266295   0.01611884
7950.00   0.93183953   0.01579358
7951.00   0.90487581   0.01575800
7952.00   0.88668096   0.01584851
7953.00   0.87902868   0.01614959
7954.00   0.87895674   0.01651009
7955.00   0.88921666   0.01656637
7956.00   0.92557889   0.01640296
7957.00   0.92002952   0.01628353
7958.00   0.86787361   0.01591558
7959.00   0.84078223   0.01588338
7960.00   0.85454029   0.01636041
7961.00   0.88631439   0.01706404
7962.00   0.90692270   0.01760542
7963.00   0.93438005   0.01836775
7964.00   0.94376820   0.01848124
7965.00   0.93532306   0.01796122
7966.00   0.92944723   0.01752625
7967.00   0.93047929   0.01733612
7968.00   0.93307722   0.01721338
7969.00   0.93136901   0.01699104
7970.00   0.92185736   0.01675738
7971.00   0.92570794   0.01641777
7972.00   0.93902928   0.01578346
7973.00   0.95488673   0.01542220
7974.00   0.97421175   0.01554219
7975.00   0.99516189   0.01592183
7976.00   1.00799847   0.01619946
7977.00   1.01983142   0.01664558
7978.00   1.01882160   0.01678901
7979.00   1.00482643   0.01670631
7980.00   0.98784608   0.01659103
