# File created by shivutils (I.Shivvers)
# wl(A)   flm    er(optional)
3440.00   0.26675153   0.03508348
3442.00   0.18361083   0.03496806
3444.00   0.14438088   0.03643082
3446.00   0.11637502   0.03564934
3448.00   0.26454576   0.03795187
3450.00   0.09401421   0.03820940
3452.00   0.13917541   0.03860052
3454.00   0.16335923   0.03911087
3456.00   0.06136197   0.03888520
3458.00   0.17466347   0.04007008
3460.00   0.17938166   0.03883092
3462.00   0.10509278   0.03832671
3464.00   0.12151728   0.03860090
3466.00   0.16549612   0.03963802
3468.00   0.26454138   0.04029494
3470.00   0.18151200   0.03963245
3472.00   0.19125203   0.03920997
3474.00   0.14109009   0.03932480
3476.00   0.25057203   0.04081750
3478.00   0.15841296   0.04138726
3480.00   0.17666818   0.04256062
3482.00   0.17923327   0.04269611
3484.00   0.25176918   0.04282588
3486.00   0.17850214   0.04188606
3488.00   0.17473484   0.04145875
3490.00   0.18413366   0.04093658
3492.00   0.11672966   0.03886685
3494.00   0.25776381   0.04060620
3496.00   0.20439010   0.03974927
3498.00   0.18925079   0.03982737
3500.00   0.16874153   0.03928930
3502.00   0.21914081   0.03947045
3504.00   0.23196300   0.03943395
3506.00   0.13105740   0.03807676
3508.00   0.08931604   0.03732817
3510.00   0.12870012   0.03849253
3512.00   0.14892831   0.03830965
3514.00   0.07757873   0.03803682
3516.00   0.07858070   0.03783398
3518.00   0.15375514   0.03830628
3520.00   0.20283519   0.03752027
3522.00   0.13119225   0.03699428
3524.00   0.09097762   0.03740514
3526.00   0.17395833   0.03709148
3528.00   0.14919196   0.03698428
3530.00   0.18866680   0.03805151
3532.00   0.12449963   0.03712405
3534.00   0.16046731   0.03832823
3536.00   0.17751175   0.03879348
3538.00   0.20858002   0.03895536
3540.00   0.08185408   0.03904739
3542.00   0.11704486   0.04106237
3544.00   0.12708948   0.04087828
3546.00   0.15409416   0.04089858
3548.00   0.19417577   0.04026665
3550.00   0.09571569   0.03970341
3552.00   0.19858658   0.04088532
3554.00   0.16782719   0.04023971
3556.00   0.10349044   0.03960740
3558.00   0.12249021   0.03995641
3560.00   0.15531352   0.03852638
3562.00   0.16199895   0.03829269
3564.00   0.20020026   0.03904007
3566.00   0.16759879   0.03801704
3568.00   0.19849584   0.03767246
3570.00   0.21359493   0.03763758
3572.00   0.21404482   0.03799836
3574.00   0.10787332   0.03791582
3576.00   0.22699565   0.03651504
3578.00   0.10693930   0.03571886
3580.00   0.21037636   0.03576874
3582.00   0.21894850   0.03538609
3584.00   0.13892668   0.03335347
3586.00   0.18008190   0.03386195
3588.00   0.19152872   0.03389754
3590.00   0.19926567   0.03496349
3592.00   0.15983290   0.03351282
3594.00   0.20596353   0.03295405
3596.00   0.19401516   0.03237406
3598.00   0.16828822   0.03209660
3600.00   0.15963552   0.03119957
3602.00   0.14078556   0.03119296
3604.00   0.08854787   0.02939623
3606.00   0.19951669   0.03055717
3608.00   0.16014575   0.03042892
3610.00   0.11739458   0.02962768
3612.00   0.12644908   0.03065472
3614.00   0.10647788   0.03138266
3616.00   0.10458526   0.03065627
3618.00   0.16812452   0.03070891
3620.00   0.09556625   0.02906012
3622.00   0.24066642   0.02992379
3624.00   0.20575006   0.02954080
3626.00   0.20325621   0.02905809
3628.00   0.21230489   0.02957503
3630.00   0.24380544   0.03088672
3632.00   0.14271490   0.02939209
3634.00   0.23454542   0.02963542
3636.00   0.22571794   0.02911362
3638.00   0.20239214   0.02872216
3640.00   0.17110950   0.02922421
3642.00   0.16650122   0.02961143
3644.00   0.14072451   0.02987907
3646.00   0.17490241   0.03180309
3648.00   0.13179826   0.04186848
3650.00   0.16515156   0.04734576
3652.00   0.18281160   0.04321047
3654.00   0.18083397   0.03993353
3656.00   0.12903788   0.03511774
3658.00   0.18817644   0.02954445
3660.00   0.17164844   0.03055640
3662.00   0.17946258   0.03442324
3664.00   0.14077416   0.03304718
3666.00   0.17429433   0.02810030
3668.00   0.19856077   0.02613205
3670.00   0.18051796   0.02523986
3672.00   0.16904743   0.02482064
3674.00   0.11222541   0.02390418
3676.00   0.10954620   0.02353367
3678.00   0.14362686   0.02393392
3680.00   0.13951907   0.02308199
3682.00   0.13670829   0.02347651
3684.00   0.14208429   0.02257461
3686.00   0.12558338   0.02228859
3688.00   0.13822881   0.02264552
3690.00   0.10267706   0.02225821
3692.00   0.13097993   0.02288927
3694.00   0.19527786   0.02307886
3696.00   0.12182038   0.02273967
3698.00   0.18496100   0.02350980
3700.00   0.15494683   0.02328813
3702.00   0.18424369   0.02360304
3704.00   0.18682253   0.02325038
3706.00   0.15996217   0.02307442
3708.00   0.18598738   0.02279170
3710.00   0.16539374   0.02275979
3712.00   0.19770500   0.02252424
3714.00   0.18981265   0.02264244
3716.00   0.17633535   0.02224632
3718.00   0.19783039   0.02226649
3720.00   0.18895387   0.02225315
3722.00   0.17197603   0.02168993
3724.00   0.19226204   0.02224080
3726.00   0.19916173   0.02221154
3728.00   0.21902324   0.02267018
3730.00   0.27399333   0.02306384
3732.00   0.25735246   0.02285486
3734.00   0.28179919   0.02326580
3736.00   0.23410567   0.02289983
3738.00   0.23354145   0.02316832
3740.00   0.31459649   0.02390671
3742.00   0.39735276   0.02453250
3744.00   0.37250940   0.02386390
3746.00   0.34679164   0.02294221
3748.00   0.31761075   0.02276369
3750.00   0.34925950   0.02265789
3752.00   0.36259989   0.02323007
3754.00   0.38259853   0.02329468
3756.00   0.34200545   0.02277216
3758.00   0.34378446   0.02280046
3760.00   0.36690099   0.02284245
3762.00   0.36862293   0.02254961
3764.00   0.37334648   0.02243473
3766.00   0.40651006   0.02249842
3768.00   0.33792328   0.02198882
3770.00   0.35315822   0.02207616
3772.00   0.31178629   0.02162564
3774.00   0.36266337   0.02209033
3776.00   0.35015808   0.02216907
3778.00   0.34678701   0.02192768
3780.00   0.40049946   0.02233487
3782.00   0.35614282   0.02217124
3784.00   0.38338669   0.02194289
3786.00   0.38856253   0.02190799
3788.00   0.36336717   0.02162497
3790.00   0.33629371   0.02169312
3792.00   0.35212452   0.02177331
3794.00   0.34963641   0.02142677
3796.00   0.34604869   0.02109404
3798.00   0.39517312   0.02163598
3800.00   0.41655487   0.02186965
3802.00   0.35661061   0.02152945
3804.00   0.41114708   0.02170010
3806.00   0.33747572   0.02071288
3808.00   0.28265348   0.02034163
3810.00   0.37366300   0.02091346
3812.00   0.31907951   0.02017894
3814.00   0.33554494   0.02043377
3816.00   0.34194869   0.02048890
3818.00   0.36413675   0.02057100
3820.00   0.34773407   0.02059531
3822.00   0.39695974   0.02084971
3824.00   0.38050700   0.02064543
3826.00   0.34085298   0.02062728
3828.00   0.36298275   0.02100014
3830.00   0.34804069   0.02091828
3832.00   0.30384032   0.02007759
3834.00   0.25671830   0.01949980
3836.00   0.26823169   0.01952049
3838.00   0.27555487   0.01935232
3840.00   0.22561336   0.01866276
3842.00   0.24096172   0.01881566
3844.00   0.21813313   0.01843174
3846.00   0.19527676   0.01784234
3848.00   0.22766000   0.01811706
3850.00   0.26127349   0.01823766
3852.00   0.21691753   0.01787175
3854.00   0.18423169   0.01730054
3856.00   0.19058590   0.01715572
3858.00   0.20042139   0.01725731
3860.00   0.18007764   0.01699291
3862.00   0.16371230   0.01679386
3864.00   0.16208019   0.01690037
3866.00   0.13256164   0.01652166
3868.00   0.16711341   0.01641678
3870.00   0.16727033   0.01625442
3872.00   0.13475036   0.01709528
3874.00   0.16004662   0.01741232
3876.00   0.18050514   0.01752195
3878.00   0.17480797   0.01677499
3880.00   0.16447480   0.01621473
3882.00   0.13559572   0.01611161
3884.00   0.17288438   0.01611580
3886.00   0.18039105   0.01635306
3888.00   0.16054407   0.01613154
3890.00   0.13165115   0.01617484
3892.00   0.16997718   0.01653206
3894.00   0.20021018   0.01715426
3896.00   0.22273273   0.01702186
3898.00   0.20480783   0.01691751
3900.00   0.23247719   0.01734303
3902.00   0.23612356   0.01775353
3904.00   0.24046980   0.01878948
3906.00   0.23667161   0.02051586
3908.00   0.25996576   0.02180018
3910.00   0.27435219   0.02257785
3912.00   0.23001420   0.02211431
3914.00   0.28371846   0.02084012
3916.00   0.27694233   0.01975339
3918.00   0.27809460   0.01903619
3920.00   0.26566344   0.01802070
3922.00   0.31444706   0.01813124
3924.00   0.33858626   0.01830825
3926.00   0.27790882   0.01775495
3928.00   0.28461689   0.01742613
3930.00   0.33571106   0.01823070
3932.00   0.32862155   0.01859517
3934.00   0.37783673   0.01897710
3936.00   0.36591380   0.01837576
3938.00   0.36301157   0.01803226
3940.00   0.41270985   0.01867206
3942.00   0.42377070   0.01957893
3944.00   0.43817072   0.02013741
3946.00   0.45512061   0.01975808
3948.00   0.49231334   0.01946099
3950.00   0.52410958   0.01962554
3952.00   0.55544544   0.01967234
3954.00   0.52832964   0.01935880
3956.00   0.62587415   0.02007979
3958.00   0.63164396   0.02037975
3960.00   0.65481992   0.02132512
3962.00   0.63210979   0.02149393
3964.00   0.67730775   0.02049012
3966.00   0.67420991   0.02007146
3968.00   0.64879142   0.01983332
3970.00   0.70006003   0.02012744
3972.00   0.65913619   0.02001350
3974.00   0.67761195   0.01990335
3976.00   0.66039477   0.01988468
3978.00   0.65698749   0.01981271
3980.00   0.64805473   0.01976485
3982.00   0.63207490   0.01987790
3984.00   0.67623942   0.01980124
3986.00   0.65174458   0.01989338
3988.00   0.70252723   0.02022116
3990.00   0.63777506   0.01985001
3992.00   0.68254606   0.02007356
3994.00   0.70766820   0.02082563
3996.00   0.70791666   0.02135939
3998.00   0.70846154   0.02122115
4000.00   0.70363889   0.02051010
4002.00   0.67127809   0.01996879
4004.00   0.69002064   0.01982290
4006.00   0.72528902   0.02009564
4008.00   0.67040438   0.02015800
4010.00   0.67043940   0.02023584
4012.00   0.67528287   0.02023314
4014.00   0.71182603   0.02037342
4016.00   0.68679227   0.02055726
4018.00   0.66731471   0.02193949
4020.00   0.69178557   0.02353542
4022.00   0.74368246   0.02443057
4024.00   0.63512427   0.02333079
4026.00   0.68422289   0.02252440
4028.00   0.67371706   0.02142661
4030.00   0.69506726   0.02122510
4032.00   0.70914809   0.02111739
4034.00   0.68369897   0.02053981
4036.00   0.66232096   0.02030811
4038.00   0.69682162   0.02021285
4040.00   0.66433321   0.02012116
4042.00   0.70991651   0.02246290
4044.00   0.66005217   0.03505801
4046.00   0.69557677   0.04216587
4048.00   0.70167741   0.03843439
4050.00   0.72751449   0.02871543
4052.00   0.68756533   0.02320759
4054.00   0.68959634   0.02179953
4056.00   0.69315769   0.02118831
4058.00   0.62893708   0.02004093
4060.00   0.68997140   0.01987688
4062.00   0.72924045   0.01989931
4064.00   0.68856364   0.01957394
4066.00   0.68040154   0.01940364
4068.00   0.65410422   0.01907434
4070.00   0.66419393   0.01893604
4072.00   0.59307775   0.01836765
4074.00   0.62732705   0.01955672
4076.00   0.61218451   0.02198965
4078.00   0.66436497   0.02310735
4080.00   0.71088086   0.02226660
4082.00   0.75675475   0.02156782
4084.00   0.75256707   0.02133316
4086.00   0.81034524   0.02138554
4088.00   0.84938528   0.02060461
4090.00   0.85989407   0.01999193
4092.00   0.82801513   0.01948636
4094.00   0.82046845   0.01937345
4096.00   0.85282577   0.01950239
4098.00   0.85167938   0.01946275
4100.00   0.84124331   0.01923590
4102.00   0.79206161   0.01881666
4104.00   0.78589778   0.01862462
4106.00   0.73218048   0.01839708
4108.00   0.78948714   0.01882948
4110.00   0.75457518   0.01846143
4112.00   0.74872857   0.01837950
4114.00   0.73942521   0.01832053
4116.00   0.73906755   0.01822078
4118.00   0.69399919   0.01774658
4120.00   0.70683334   0.01756978
4122.00   0.66141345   0.01722737
4124.00   0.63276049   0.01726286
4126.00   0.64754935   0.01743319
4128.00   0.61443971   0.01719933
4130.00   0.63026080   0.01755551
4132.00   0.55390281   0.01826021
4134.00   0.57890933   0.01779340
4136.00   0.55306009   0.01739628
4138.00   0.57553640   0.01770101
4140.00   0.56946210   0.01778785
4142.00   0.53095121   0.01711735
4144.00   0.55391470   0.01690686
4146.00   0.56790643   0.01668958
4148.00   0.55865446   0.01659392
4150.00   0.54734586   0.01724757
4152.00   0.52878252   0.01765544
4154.00   0.58528142   0.01769994
4156.00   0.61399601   0.01748738
4158.00   0.59420133   0.01707724
4160.00   0.59796664   0.01731996
4162.00   0.62981882   0.01819465
4164.00   0.67342758   0.01908534
4166.00   0.68813778   0.01912713
4168.00   0.68627264   0.01838580
4170.00   0.74835312   0.01821286
4172.00   0.70289235   0.01761425
4174.00   0.69087146   0.01739379
4176.00   0.64959310   0.01725473
4178.00   0.65878133   0.01739879
4180.00   0.61429615   0.01704422
4182.00   0.57431686   0.01659877
4184.00   0.62866412   0.01693455
4186.00   0.60642506   0.01672786
4188.00   0.60030774   0.01654298
4190.00   0.54404258   0.01618060
4192.00   0.54412345   0.01631573
4194.00   0.51681236   0.01607315
4196.00   0.49089996   0.01577248
4198.00   0.47137651   0.01556230
4200.00   0.48726437   0.01566886
4202.00   0.45170303   0.01553663
4204.00   0.46861385   0.01569555
4206.00   0.44347655   0.01553143
4208.00   0.45048832   0.01577707
4210.00   0.44653051   0.01597147
4212.00   0.43221256   0.01588075
4214.00   0.46138025   0.01602637
4216.00   0.46980523   0.01588602
4218.00   0.45022758   0.01570062
4220.00   0.44529329   0.01569343
4222.00   0.43287163   0.01559296
4224.00   0.49984870   0.01594342
4226.00   0.46350151   0.01582666
4228.00   0.48742259   0.01605669
4230.00   0.50188695   0.01635296
4232.00   0.48703910   0.01643269
4234.00   0.45870215   0.01648079
4236.00   0.46707912   0.01668873
4238.00   0.44012735   0.01660541
4240.00   0.40638544   0.01599765
4242.00   0.44951476   0.01606574
4244.00   0.43694486   0.01739655
4246.00   0.38655558   0.01825327
4248.00   0.36154371   0.01770877
4250.00   0.34986657   0.01637784
4252.00   0.33613454   0.01549609
4254.00   0.36154960   0.01531939
4256.00   0.37043333   0.01529576
4258.00   0.32924489   0.01514694
4260.00   0.34358173   0.01509455
4262.00   0.35183907   0.01499141
4264.00   0.35212864   0.01490016
4266.00   0.37800472   0.01513581
4268.00   0.34919847   0.01494803
4270.00   0.38300601   0.01534837
4272.00   0.38184019   0.01526487
4274.00   0.33761145   0.01508737
4276.00   0.37142756   0.01535027
4278.00   0.33939947   0.01528522
4280.00   0.34169492   0.01543700
4282.00   0.38699223   0.01560437
4284.00   0.36888785   0.01553233
4286.00   0.39379593   0.01557135
4288.00   0.38871208   0.01549618
4290.00   0.34454597   0.01508598
4292.00   0.35099251   0.01532572
4294.00   0.39561402   0.01570659
4296.00   0.35713291   0.01549976
4298.00   0.34225095   0.01537710
4300.00   0.37881482   0.01535458
4302.00   0.38368790   0.01548738
4304.00   0.37843706   0.01560927
4306.00   0.42197232   0.01595160
4308.00   0.37633608   0.01580470
4310.00   0.40009280   0.01629749
4312.00   0.40555849   0.01741076
4314.00   0.40864092   0.01769052
4316.00   0.45859314   0.01748917
4318.00   0.48303248   0.01777754
4320.00   0.48343896   0.01794657
4322.00   0.51965763   0.01813440
4324.00   0.48435454   0.01784630
4326.00   0.54017329   0.01769646
4328.00   0.50774023   0.01719994
4330.00   0.49242536   0.01694407
4332.00   0.50966494   0.01682719
4334.00   0.50609389   0.01698666
4336.00   0.52068538   0.01735882
4338.00   0.51786950   0.01762563
4340.00   0.51608792   0.01764395
4342.00   0.45539437   0.01740978
4344.00   0.50236933   0.01805602
4346.00   0.41962350   0.01843574
4348.00   0.43002835   0.01853425
4350.00   0.42936402   0.01823916
4352.00   0.48021855   0.01828439
4354.00   0.42396030   0.02428245
4356.00   0.49272124   0.03970620
4358.00   0.36351378   0.04533256
4360.00   0.41180611   0.03966729
4362.00   0.44208034   0.03175621
4364.00   0.43880892   0.02413746
4366.00   0.40856407   0.01980387
4368.00   0.42086252   0.01856899
4370.00   0.45130758   0.01848427
4372.00   0.43765382   0.01881052
4374.00   0.46614705   0.01908936
4376.00   0.52085630   0.01886253
4378.00   0.51539179   0.01843350
4380.00   0.51217187   0.01805479
4382.00   0.48302596   0.01782514
4384.00   0.55746924   0.01800837
4386.00   0.52008497   0.01780284
4388.00   0.49879601   0.01769223
4390.00   0.49557358   0.01774701
4392.00   0.48103576   0.01764635
4394.00   0.49705154   0.01774868
4396.00   0.52224204   0.01774066
4398.00   0.56266054   0.01830909
4400.00   0.60334422   0.01870761
4402.00   0.59280855   0.01857922
4404.00   0.56048344   0.01830564
4406.00   0.59238960   0.01814121
4408.00   0.53884286   0.01795127
4410.00   0.54170808   0.01803724
4412.00   0.57571319   0.01826532
4414.00   0.54598618   0.01846785
4416.00   0.48917330   0.01830775
4418.00   0.53244112   0.01826249
4420.00   0.52838500   0.01813740
4422.00   0.57442353   0.01825561
4424.00   0.55325381   0.01812225
4426.00   0.54042027   0.01809864
4428.00   0.56491375   0.01821328
4430.00   0.57011991   0.01813891
4432.00   0.59378919   0.01829355
4434.00   0.59372560   0.01829270
4436.00   0.55572777   0.01812503
4438.00   0.58069840   0.01819133
4440.00   0.56910079   0.01821361
4442.00   0.56483025   0.01819175
4444.00   0.54445140   0.01815206
4446.00   0.54723571   0.01812634
4448.00   0.59153258   0.01826150
4450.00   0.59046070   0.01823636
4452.00   0.59879194   0.01828461
4454.00   0.59255458   0.01821904
4456.00   0.58706312   0.01824728
4458.00   0.60110985   0.01820857
4460.00   0.55910588   0.01812113
4462.00   0.53991004   0.01809305
4464.00   0.48427233   0.01776349
4466.00   0.50938791   0.01777692
4468.00   0.48826388   0.01769895
4470.00   0.49354086   0.01766739
4472.00   0.48672384   0.01761295
4474.00   0.48983602   0.01764631
4476.00   0.47958626   0.01762292
4478.00   0.44822459   0.01744537
4480.00   0.50221486   0.01769121
4482.00   0.46879653   0.01753157
4484.00   0.46067285   0.01753627
4486.00   0.47093665   0.01761570
4488.00   0.45560401   0.01761460
4490.00   0.44473912   0.01753784
4492.00   0.44464825   0.01764048
4494.00   0.44357023   0.01772342
4496.00   0.44394988   0.01771605
4498.00   0.48667784   0.01784906
4500.00   0.44342856   0.01760639
4502.00   0.46476056   0.01763761
4504.00   0.46684657   0.01751512
4506.00   0.45981577   0.01739850
4508.00   0.47624811   0.01743155
4510.00   0.50184791   0.01735211
4512.00   0.48479741   0.01725668
4514.00   0.53786691   0.01741069
4516.00   0.51080394   0.01711902
4518.00   0.51034593   0.01709980
4520.00   0.56354281   0.01719966
4522.00   0.58117798   0.01729427
4524.00   0.59765123   0.01716491
4526.00   0.58127739   0.01704406
4528.00   0.61333697   0.01719042
4530.00   0.63713151   0.01729605
4532.00   0.64091046   0.01733927
4534.00   0.67778844   0.01735375
4536.00   0.71161941   0.01741254
4538.00   0.79193367   0.01771309
4540.00   0.78423492   0.01769097
4542.00   0.80976652   0.01792823
4544.00   0.84147348   0.01805075
4546.00   0.82476793   0.01791628
4548.00   0.86610354   0.01791334
4550.00   0.89882599   0.01792046
4552.00   0.95342176   0.01802625
4554.00   0.94914957   0.01805825
4556.00   0.99619523   0.01817772
4558.00   1.03916246   0.01834200
4560.00   1.03223008   0.01820482
4562.00   1.09953102   0.01836797
4564.00   1.17156471   0.01849969
4566.00   1.23620240   0.01876936
4568.00   1.29245757   0.01894955
4570.00   1.36921260   0.01922887
4572.00   1.35838411   0.01927490
4574.00   1.38940132   0.01935193
4576.00   1.40390110   0.01934042
4578.00   1.45025586   0.01939703
4580.00   1.46397575   0.01929720
4582.00   1.45311716   0.01913786
4584.00   1.47344643   0.01917831
4586.00   1.42665112   0.01895451
4588.00   1.39271941   0.01879844
4590.00   1.36341361   0.01869233
4592.00   1.37611414   0.01874876
4594.00   1.37247959   0.01870918
4596.00   1.31552778   0.01842015
4598.00   1.29621923   0.01830236
4600.00   1.28198362   0.01818755
4602.00   1.24661647   0.01803631
4604.00   1.26864096   0.01798829
4606.00   1.25128842   0.01802959
4608.00   1.28253363   0.01819408
4610.00   1.31185996   0.01820780
4612.00   1.32013081   0.01812522
4614.00   1.31224237   0.01801950
4616.00   1.33555332   0.01813235
4618.00   1.33356914   0.01808240
4620.00   1.33230491   0.01808017
4622.00   1.33706449   0.01804349
4624.00   1.33877130   0.01800255
4626.00   1.30118566   0.01787501
4628.00   1.30552747   0.01787158
4630.00   1.29003662   0.01778156
4632.00   1.29988389   0.01780373
4634.00   1.31824413   0.01785930
4636.00   1.30844590   0.01777296
4638.00   1.33338796   0.01791926
4640.00   1.32480594   0.01780371
4642.00   1.30988196   0.01778281
4644.00   1.35637125   0.01790150
4646.00   1.39555478   0.01797778
4648.00   1.40730519   0.01806866
4650.00   1.42927937   0.01824333
4652.00   1.43090690   0.01824672
4654.00   1.42645184   0.01823029
4656.00   1.42277296   0.01827497
4658.00   1.41450702   0.01829804
4660.00   1.39266885   0.01845904
4662.00   1.37428996   0.01850908
4664.00   1.37885669   0.01877790
4666.00   1.35552002   0.01895572
4668.00   1.38687426   0.01919616
4670.00   1.32294944   0.01911495
4672.00   1.29017183   0.01885422
4674.00   1.32106948   0.01874493
4676.00   1.29340361   0.01846661
4678.00   1.32180191   0.01826574
4680.00   1.33187788   0.01818149
4682.00   1.29248175   0.01774025
4684.00   1.31959670   0.01772307
4686.00   1.32385172   0.01765039
4688.00   1.31765218   0.01759607
4690.00   1.31467704   0.01754322
4692.00   1.30973054   0.01747284
4694.00   1.30587985   0.01745941
4696.00   1.24745952   0.01715458
4698.00   1.23415164   0.01698849
4700.00   1.28377371   0.01715673
4702.00   1.24115634   0.01703053
4704.00   1.22304318   0.01702380
4706.00   1.24868044   0.01717134
4708.00   1.23190405   0.01721001
4710.00   1.20285457   0.01716528
4712.00   1.21389227   0.01706798
4714.00   1.18838876   0.01690270
4716.00   1.17401499   0.01672187
4718.00   1.19201900   0.01675130
4720.00   1.16979250   0.01665261
4722.00   1.14454800   0.01655826
4724.00   1.12355999   0.01643094
4726.00   1.14413494   0.01700730
4728.00   1.10801091   0.01722070
4730.00   1.13296783   0.01739440
4732.00   1.07521692   0.01740953
4734.00   1.06734147   0.01774639
4736.00   1.06018462   0.01778578
4738.00   1.10053153   0.01827192
4740.00   1.07589453   0.01861405
4742.00   1.05462807   0.01877462
4744.00   1.08158581   0.01842589
4746.00   1.03487815   0.01755143
4748.00   1.02107273   0.01699724
4750.00   1.00636355   0.01665586
4752.00   0.98605303   0.01651646
4754.00   0.98182339   0.01621244
4756.00   0.94987988   0.01583028
4758.00   0.98258738   0.01562272
4760.00   0.96438259   0.01530093
4762.00   0.94830672   0.01508010
4764.00   0.93379463   0.01482718
4766.00   0.89964451   0.01461652
4768.00   0.89742656   0.01450716
4770.00   0.87379897   0.01436974
4772.00   0.80356768   0.01406601
4774.00   0.85513421   0.01432481
4776.00   0.82273214   0.01440851
4778.00   0.83556443   0.01479543
4780.00   0.81651266   0.01455265
4782.00   0.81325023   0.01439623
4784.00   0.78569012   0.01413090
4786.00   0.78630999   0.01397581
4788.00   0.78208906   0.01394849
4790.00   0.74763464   0.01378126
4792.00   0.72834593   0.01366793
4794.00   0.71357396   0.01347168
4796.00   0.65843063   0.01317235
4798.00   0.65211193   0.01299190
4800.00   0.63389933   0.01284947
4802.00   0.63693574   0.01285611
4804.00   0.60039754   0.01269966
4806.00   0.56340920   0.01256170
4808.00   0.58843428   0.01266868
4810.00   0.57222806   0.01270076
4812.00   0.55108776   0.01260432
4814.00   0.54293387   0.01253224
4816.00   0.57516148   0.01270206
4818.00   0.58127156   0.01269187
4820.00   0.57458409   0.01282344
4822.00   0.59693612   0.01303330
4824.00   0.63456466   0.01330455
4826.00   0.67141274   0.01362095
4828.00   0.72772643   0.01395967
4830.00   0.79701958   0.01433678
4832.00   0.91526066   0.01497833
4834.00   1.00807267   0.01529697
4836.00   1.10503071   0.01577159
4838.00   1.16476473   0.01628710
4840.00   1.23421389   0.01664514
4842.00   1.30397394   0.01678106
4844.00   1.34750184   0.01697161
4846.00   1.42474940   0.01723227
4848.00   1.45622404   0.01734735
4850.00   1.50192940   0.01757371
4852.00   1.53873775   0.01770711
4854.00   1.50788742   0.01752642
4856.00   1.54713792   0.01762661
4858.00   1.52568147   0.01756513
4860.00   1.57641784   0.01778456
4862.00   1.52540085   0.01767615
4864.00   1.47785554   0.01757538
4866.00   1.51056453   0.01763425
4868.00   1.51065035   0.01778175
4870.00   1.46670868   0.01761351
4872.00   1.40115436   0.01718582
4874.00   1.40768632   0.01730082
4876.00   1.36373077   0.01717008
4878.00   1.32707879   0.01705806
4880.00   1.30289619   0.01693624
4882.00   1.28859704   0.01677499
4884.00   1.25823414   0.01655517
4886.00   1.25328575   0.01645449
4888.00   1.21449611   0.01626007
4890.00   1.23746902   0.01627486
4892.00   1.21931181   0.01621585
4894.00   1.25840215   0.01636658
4896.00   1.24127631   0.01629015
4898.00   1.33307252   0.01651815
4900.00   1.37851360   0.01669198
4902.00   1.39545570   0.01671115
4904.00   1.46511630   0.01698563
4906.00   1.52615958   0.01719561
4908.00   1.55623561   0.01740637
4910.00   1.62600879   0.01764385
4912.00   1.62903047   0.01765696
4914.00   1.65942812   0.01784131
4916.00   1.68532260   0.01792311
4918.00   1.67832138   0.01779432
4920.00   1.69589842   0.01789333
4922.00   1.71729036   0.01790452
4924.00   1.73157903   0.01782945
4926.00   1.71567118   0.01767120
4928.00   1.69712078   0.01752291
4930.00   1.69840938   0.01753917
4932.00   1.69797390   0.01749390
4934.00   1.74001958   0.01766683
4936.00   1.68279227   0.01748095
4938.00   1.68519466   0.01758544
4940.00   1.67277603   0.01751939
4942.00   1.65602873   0.01741380
4944.00   1.60650406   0.01720521
4946.00   1.61536386   0.01719484
4948.00   1.55569497   0.01703501
4950.00   1.49355635   0.01713829
4952.00   1.49710860   0.01694329
4954.00   1.45611941   0.01677298
4956.00   1.40532271   0.01664631
4958.00   1.34960696   0.01647566
4960.00   1.31682081   0.01638406
4962.00   1.32287125   0.01632411
4964.00   1.26276641   0.01623493
4966.00   1.21116343   0.01610414
4968.00   1.14276534   0.01605640
4970.00   1.12003661   0.01615228
4972.00   1.11513037   0.01655497
4974.00   1.06677826   0.01684931
4976.00   1.01817413   0.01728890
4978.00   1.01337905   0.01811529
4980.00   0.94923238   0.01872176
4982.00   0.96430777   0.01926878
4984.00   1.00232330   0.01942872
4986.00   0.99785615   0.01905124
4988.00   1.02698210   0.01866956
4990.00   1.01593968   0.01815941
4992.00   1.07061764   0.01770882
4994.00   1.09811084   0.01721527
4996.00   1.17387924   0.01693646
4998.00   1.24782580   0.01679405
5000.00   1.28192681   0.01665490
5002.00   1.33940915   0.01665938
5004.00   1.41433872   0.01678115
5006.00   1.49064371   0.01688962
5008.00   1.46503220   0.01673066
5010.00   1.54960928   0.01699084
5012.00   1.52713524   0.01683645
5014.00   1.54348130   0.01691751
5016.00   1.58072996   0.01708409
5018.00   1.55425549   0.01719733
5020.00   1.57608538   0.01723196
5022.00   1.57240045   0.01721022
5024.00   1.56126775   0.01703780
5026.00   1.58582066   0.01709597
5028.00   1.55862114   0.01717516
5030.00   1.52634864   0.01715126
5032.00   1.54567808   0.01711538
5034.00   1.52477807   0.01692426
5036.00   1.51045483   0.01684740
5038.00   1.45843196   0.01657363
5040.00   1.45844832   0.01648410
5042.00   1.44316663   0.01646798
5044.00   1.43847113   0.01645790
5046.00   1.43740087   0.01643624
5048.00   1.39568178   0.01632423
5050.00   1.42431405   0.01639789
5052.00   1.36093533   0.01620379
5054.00   1.36266386   0.01622126
5056.00   1.33388289   0.01612545
5058.00   1.32513781   0.01603839
5060.00   1.28500627   0.01601690
5062.00   1.28970270   0.01627786
5064.00   1.24272136   0.01624768
5066.00   1.23367170   0.01644357
5068.00   1.19864350   0.01670739
5070.00   1.17261005   0.01668677
5072.00   1.14980730   0.01644846
5074.00   1.15822980   0.01633977
5076.00   1.14466162   0.01623395
5078.00   1.12479643   0.01650242
5080.00   1.08471660   0.01740921
5082.00   1.05135515   0.01833103
5084.00   1.04917079   0.01895961
5086.00   1.04487108   0.01910744
5088.00   1.01373797   0.01853363
5090.00   0.97893862   0.01761257
5092.00   0.97506858   0.01670641
5094.00   0.96498932   0.01622980
5096.00   0.92990244   0.01601684
5098.00   0.92615659   0.01612922
5100.00   0.90929844   0.01601435
5102.00   0.93820875   0.01581566
5104.00   0.90988368   0.01542896
5106.00   0.89335299   0.01515244
5108.00   0.88823287   0.01492011
5110.00   0.86437492   0.01477518
5112.00   0.81865694   0.01460152
5114.00   0.83515413   0.01483167
5116.00   0.79007605   0.01467694
5118.00   0.80512573   0.01464759
5120.00   0.76152018   0.01423798
5122.00   0.71278964   0.01393440
5124.00   0.69443408   0.01386958
5126.00   0.68057393   0.01369458
5128.00   0.64987856   0.01356231
5130.00   0.65914719   0.01365776
5132.00   0.64846562   0.01357692
5134.00   0.65836070   0.01361583
5136.00   0.66881379   0.01372426
5138.00   0.66398083   0.01367540
5140.00   0.69542351   0.01388148
5142.00   0.71103814   0.01391882
5144.00   0.75124614   0.01427189
5146.00   0.74646213   0.01446709
5148.00   0.81379684   0.01519715
5150.00   0.82935217   0.01579120
5152.00   0.88836420   0.01648717
5154.00   0.88790435   0.01660376
5156.00   0.90898488   0.01649307
5158.00   0.90887623   0.01628696
5160.00   0.94238256   0.01610005
5162.00   0.94112583   0.01585226
5164.00   1.02965180   0.01591852
5166.00   1.07469681   0.01589839
5168.00   1.07580184   0.01582675
5170.00   1.08592814   0.01589534
5172.00   1.12272840   0.01600067
5174.00   1.13315815   0.01611694
5176.00   1.15832691   0.01630769
5178.00   1.16355291   0.01631867
5180.00   1.18102325   0.01641101
5182.00   1.22367925   0.01658273
5184.00   1.22033490   0.01659241
5186.00   1.25296002   0.01672481
5188.00   1.29560301   0.01691000
5190.00   1.24961323   0.01685216
5192.00   1.26863336   0.01700911
5194.00   1.25855442   0.01697918
5196.00   1.25095505   0.01708871
5198.00   1.26769165   0.01719207
5200.00   1.25459998   0.01720183
5202.00   1.29894699   0.01738141
5204.00   1.29380642   0.01738835
5206.00   1.29020959   0.01742436
5208.00   1.31099024   0.01780025
5210.00   1.32331499   0.01796089
5212.00   1.38842175   0.01816393
5214.00   1.34089934   0.01793389
5216.00   1.37515154   0.01825006
5218.00   1.38385786   0.01834959
5220.00   1.39556252   0.01834773
5222.00   1.37267299   0.01815556
5224.00   1.36461484   0.01812450
5226.00   1.32804356   0.01794294
5228.00   1.34717157   0.01801414
5230.00   1.31396507   0.01793441
5232.00   1.32494168   0.01791902
5234.00   1.30430667   0.01776833
5236.00   1.29964949   0.01785253
5238.00   1.27057276   0.01790391
5240.00   1.26054533   0.01794771
5242.00   1.23779632   0.01777905
5244.00   1.25363148   0.01783356
5246.00   1.28480722   0.01793236
5248.00   1.29289259   0.01795010
5250.00   1.28981758   0.01797853
5252.00   1.29220987   0.01806825
5254.00   1.33982774   0.01835642
5256.00   1.34187928   0.01865510
5258.00   1.36627700   0.01890457
5260.00   1.33973376   0.01877828
5262.00   1.39016515   0.01889457
5264.00   1.37572218   0.01879739
5266.00   1.37159693   0.01873169
5268.00   1.34136151   0.01863462
5270.00   1.32980686   0.01855554
5272.00   1.28050084   0.01842837
5274.00   1.27279652   0.01841874
5276.00   1.24890805   0.01834148
5278.00   1.23318636   0.01834001
5280.00   1.24727494   0.01843549
5282.00   1.21829102   0.01848685
5284.00   1.20014298   0.01847926
5286.00   1.17702169   0.01851149
5288.00   1.23413339   0.01862738
5290.00   1.23629521   0.01866551
5292.00   1.22337039   0.01861071
5294.00   1.25744752   0.01878579
5296.00   1.27015347   0.01886690
5298.00   1.30778660   0.01915183
5300.00   1.29544670   0.01916363
5302.00   1.29775993   0.01918227
5304.00   1.34519053   0.01944978
5306.00   1.36232496   0.01948619
5308.00   1.42577274   0.01964148
5310.00   1.40609063   0.01980687
5312.00   1.39628700   0.01988574
5314.00   1.42264940   0.01996748
5316.00   1.47313660   0.02014425
5318.00   1.45397287   0.02012742
5320.00   1.47467550   0.02022135
5322.00   1.45414736   0.02019224
5324.00   1.47807331   0.02034339
5326.00   1.49776215   0.02054071
5328.00   1.47786432   0.02054793
5330.00   1.48071258   0.02062323
5332.00   1.50202118   0.02076687
5334.00   1.46613279   0.02078293
5336.00   1.47144936   0.02091633
5338.00   1.46592630   0.02113592
5340.00   1.43840870   0.02132448
5342.00   1.45134600   0.02148318
5344.00   1.47037279   0.02149285
5346.00   1.49645894   0.02205714
5348.00   1.46649342   0.02233768
5350.00   1.49820067   0.02249090
5352.00   1.45953640   0.02249829
5354.00   1.45879863   0.02294252
5356.00   1.47381941   0.02308321
5358.00   1.47658274   0.02272127
5360.00   1.52981694   0.02281051
5362.00   1.46122710   0.02241036
5364.00   1.47493744   0.02217676
5366.00   1.51369448   0.02226514
5368.00   1.52905913   0.02226590
5370.00   1.52660169   0.02239860
5372.00   1.49465342   0.02247260
5374.00   1.51630982   0.02282616
5376.00   1.48118400   0.02293281
5378.00   1.44100593   0.02273797
5380.00   1.47430718   0.02303066
5382.00   1.44687480   0.02296342
5384.00   1.48076264   0.02309821
5386.00   1.46707006   0.02328214
5388.00   1.45765446   0.02343751
5390.00   1.50987633   0.02410121
5392.00   1.52106639   0.02448665
5394.00   1.47991851   0.02431488
5396.00   1.53368261   0.02460762
5398.00   1.54165059   0.02482488
5400.00   1.55608920   0.02506787
5402.00   1.55547076   0.02519997
5404.00   1.58426979   0.02546678
5406.00   1.59836005   0.02569346
5408.00   1.49222671   0.02579760
5410.00   1.50073279   0.02619727
5412.00   1.48301960   0.02677756
5414.00   1.54585627   0.02767144
5416.00   1.47737608   0.02807770
5418.00   1.54703041   0.02849661
5420.00   1.49766029   0.02860414
5422.00   1.53672528   0.02883429
5424.00   1.48435883   0.02874729
5426.00   1.50551153   0.02863877
5428.00   1.51609272   0.02848259
5430.00   1.44544614   0.02824802
5432.00   1.42986806   0.02810690
5434.00   1.49194247   0.02836859
5436.00   1.48288333   0.02847024
5438.00   1.41911724   0.02829566
5440.00   1.47526812   0.02853639
5442.00   1.41754076   0.01124547
5444.00   1.41812901   0.01117151
5446.00   1.45599613   0.01165602
5448.00   1.48274364   0.01201872
5450.00   1.44930593   0.01201874
5452.00   1.39790870   0.01265917
5454.00   1.36804607   0.01398937
5456.00   1.35912641   0.01537928
5458.00   1.34686791   0.01615568
5460.00   1.33430766   0.01604169
5462.00   1.34961476   0.01582363
5464.00   1.33966851   0.01529504
5466.00   1.31115728   0.01424213
5468.00   1.30838339   0.01314755
5470.00   1.33079182   0.01211286
5472.00   1.34462488   0.01113253
5474.00   1.32702223   0.01056252
5476.00   1.30231668   0.01063160
5478.00   1.29713899   0.01092374
5480.00   1.31360657   0.01103237
5482.00   1.32488711   0.01082033
5484.00   1.31717076   0.01047470
5486.00   1.29502333   0.01010436
5488.00   1.27450294   0.00973124
5490.00   1.26832661   0.00972652
5492.00   1.28147038   0.01028152
5494.00   1.30499206   0.01035485
5496.00   1.32343723   0.01006225
5498.00   1.33237038   0.00971144
5500.00   1.33915642   0.00938181
5502.00   1.35314491   0.00907030
5504.00   1.37781324   0.00895293
5506.00   1.42189412   0.00897633
5508.00   1.46169048   0.00916233
5510.00   1.48127256   0.00955095
5512.00   1.48645039   0.00991291
5514.00   1.48768435   0.01028091
5516.00   1.50047806   0.01058116
5518.00   1.53203347   0.01060559
5520.00   1.56034283   0.01029035
5522.00   1.56162244   0.01031925
5524.00   1.56160558   0.01071772
5526.00   1.55606015   0.01066049
5528.00   1.55311416   0.01011482
5530.00   1.55184980   0.00968440
5532.00   1.54268796   0.00981618
5534.00   1.51965699   0.01003904
5536.00   1.51383873   0.01001295
5538.00   1.51465328   0.00999664
5540.00   1.52777109   0.01027856
5542.00   1.56263165   0.01131918
5544.00   1.58821204   0.01210937
5546.00   1.58309158   0.01180154
5548.00   1.55802549   0.01049535
5550.00   1.53322897   0.00982019
5552.00   1.49591006   0.00990774
5554.00   1.47560918   0.00979207
5556.00   1.46925295   0.00970277
5558.00   1.46423065   0.00977928
5560.00   1.45710446   0.00985758
5562.00   1.44441412   0.00972354
5564.00   1.41347581   0.00943891
5566.00   1.37277226   0.00945545
5568.00   1.37509653   0.00951600
5570.00   1.38205823   0.00945849
5572.00   1.37212704   0.00957906
5574.00   1.35637818   0.00983752
5576.00   1.34822300   0.01011611
5578.00   1.34670485   0.01038200
5580.00   1.34642908   0.01066326
5582.00   1.33198355   0.01044038
5584.00   1.30346614   0.00987240
5586.00   1.28033221   0.00946866
5588.00   1.26505714   0.00938517
5590.00   1.25748009   0.00940887
5592.00   1.25784406   0.00929302
5594.00   1.26351334   0.00907175
5596.00   1.24670079   0.00879491
5598.00   1.21726883   0.00837373
5600.00   1.20690865   0.00833098
5602.00   1.20491632   0.00863019
5604.00   1.19874724   0.00886537
5606.00   1.18351476   0.00871444
5608.00   1.16393511   0.00820305
5610.00   1.14678634   0.00776061
5612.00   1.13426807   0.00777018
5614.00   1.12370194   0.00780733
5616.00   1.11504271   0.00774396
5618.00   1.11195771   0.00770261
5620.00   1.11625411   0.00776029
5622.00   1.12271778   0.00785697
5624.00   1.11966951   0.00786500
5626.00   1.10775337   0.00783126
5628.00   1.10843472   0.00781103
5630.00   1.10962572   0.00775617
5632.00   1.11618946   0.00773295
5634.00   1.13897552   0.00772598
5636.00   1.17324023   0.00776106
5638.00   1.19930896   0.00794880
5640.00   1.21269427   0.00838238
5642.00   1.23534728   0.00858410
5644.00   1.26222943   0.00855321
5646.00   1.27866631   0.00849836
5648.00   1.29331768   0.00832070
5650.00   1.31606548   0.00821852
5652.00   1.34582900   0.00856629
5654.00   1.36945221   0.00935573
5656.00   1.37774822   0.00953579
5658.00   1.38308078   0.00920363
5660.00   1.38702214   0.00891482
5662.00   1.38659333   0.00881864
5664.00   1.39336447   0.00915161
5666.00   1.41530096   0.00971896
5668.00   1.44351122   0.01001120
5670.00   1.45413895   0.00986576
5672.00   1.46314247   0.00975605
5674.00   1.46712711   0.01017444
5676.00   1.44333256   0.01123878
5678.00   1.41707408   0.01208964
5680.00   1.42278208   0.01238046
5682.00   1.46468453   0.01242816
5684.00   1.50173140   0.01279567
5686.00   1.49842165   0.01299669
5688.00   1.48862100   0.01299795
5690.00   1.48058841   0.01277840
5692.00   1.46854621   0.01232456
5694.00   1.46177586   0.01180623
5696.00   1.46396758   0.01139178
5698.00   1.46240532   0.01120530
5700.00   1.44032729   0.01159743
5702.00   1.41978330   0.01173678
5704.00   1.42312190   0.01082121
5706.00   1.43984279   0.00976182
5708.00   1.45364188   0.00921100
5710.00   1.45971130   0.00927260
5712.00   1.46236330   0.00967114
5714.00   1.46326159   0.01027671
5716.00   1.45327677   0.01023085
5718.00   1.43641348   0.00959385
5720.00   1.42170035   0.00912918
5722.00   1.41326526   0.00874206
5724.00   1.40892608   0.00842613
5726.00   1.40469374   0.00828326
5728.00   1.40041601   0.00834839
5730.00   1.40482357   0.00839278
5732.00   1.41713759   0.00835709
5734.00   1.41914647   0.00851699
5736.00   1.41586813   0.00866747
5738.00   1.41055367   0.00869160
5740.00   1.40071640   0.00878638
5742.00   1.38148048   0.00906601
5744.00   1.35261409   0.00910000
5746.00   1.31292370   0.00867261
5748.00   1.29589236   0.00833089
5750.00   1.30505639   0.00810699
5752.00   1.31699408   0.00818483
5754.00   1.31625906   0.00844183
5756.00   1.30188601   0.00877475
5758.00   1.28033662   0.00926192
5760.00   1.25185539   0.00995431
5762.00   1.22412484   0.00992975
5764.00   1.20869306   0.00999692
5766.00   1.20577255   0.01046403
5768.00   1.20714869   0.01063655
5770.00   1.20691078   0.01043406
5772.00   1.20370030   0.01028729
5774.00   1.19781510   0.01022777
5776.00   1.18175212   0.00951295
5778.00   1.16410726   0.00923987
5780.00   1.15990651   0.00940195
5782.00   1.17022925   0.00963881
5784.00   1.18528426   0.00995800
5786.00   1.19426017   0.01047441
5788.00   1.19324787   0.01106054
5790.00   1.17899077   0.01115161
5792.00   1.16212092   0.01058603
5794.00   1.14913015   0.01010577
5796.00   1.14240826   0.00978708
5798.00   1.14463909   0.00939327
5800.00   1.15021914   0.00894756
5802.00   1.15595704   0.00887923
5804.00   1.17530482   0.00959951
5806.00   1.20268830   0.01027851
5808.00   1.19310185   0.00988005
5810.00   1.16462433   0.00928573
5812.00   1.13842364   0.00900911
5814.00   1.12866094   0.00890973
5816.00   1.13128481   0.00867581
5818.00   1.13103940   0.00840976
5820.00   1.13027606   0.00854100
5822.00   1.14007900   0.00897394
5824.00   1.13276895   0.00904870
5826.00   1.11765089   0.00888378
5828.00   1.10970125   0.00890569
5830.00   1.11570533   0.00905775
5832.00   1.13023860   0.00917258
5834.00   1.14172764   0.00980904
5836.00   1.14042746   0.01145871
5838.00   1.13036243   0.01138778
5840.00   1.11225483   0.01007538
5842.00   1.08708623   0.00899954
5844.00   1.06576051   0.00873448
5846.00   1.05822551   0.00885342
5848.00   1.06163346   0.00899389
5850.00   1.05912415   0.00942890
5852.00   1.07040424   0.01014394
5854.00   1.08184541   0.01021937
5856.00   1.07406973   0.00988890
5858.00   1.07404032   0.01003516
5860.00   1.10075038   0.01055610
5862.00   1.14539531   0.01064614
5864.00   1.18847297   0.01029141
5866.00   1.24571086   0.01083187
5868.00   1.26706377   0.01096584
5870.00   1.26921525   0.01050357
5872.00   1.29087190   0.01005005
5874.00   1.32466607   0.00988399
5876.00   1.34532076   0.00983117
5878.00   1.34812253   0.01006511
5880.00   1.34583794   0.01241278
5882.00   1.33615500   0.01578156
5884.00   1.31177025   0.02007215
5886.00   1.23110417   0.02521386
5888.00   1.17505454   0.02913028
5890.00   1.21108507   0.03107163
5892.00   1.31556561   0.03177043
5894.00   1.38109267   0.03302960
5896.00   1.51192326   0.03532118
5898.00   1.57652639   0.03422787
5900.00   1.50540235   0.03027350
5902.00   1.46118975   0.02533886
5904.00   1.50139598   0.01970176
5906.00   1.56502766   0.01337094
5908.00   1.57326099   0.00998002
5910.00   1.56537123   0.01123808
5912.00   1.56202998   0.01060797
5914.00   1.55125210   0.01031937
5916.00   1.52855730   0.01034022
5918.00   1.50391029   0.01036305
5920.00   1.49561414   0.01026867
5922.00   1.51399697   0.01018870
5924.00   1.54697874   0.01017359
5926.00   1.55954118   0.01018580
5928.00   1.54737056   0.01065514
5930.00   1.52929718   0.01107028
5932.00   1.50661433   0.01123733
5934.00   1.49448104   0.01120830
5936.00   1.50311292   0.01104736
5938.00   1.51846180   0.01070918
5940.00   1.50019386   0.01052076
5942.00   1.49331846   0.01061724
5944.00   1.50316335   0.01087862
5946.00   1.50492821   0.01090759
5948.00   1.50072200   0.01049890
5950.00   1.49763299   0.00998870
5952.00   1.49363755   0.00996159
5954.00   1.47884832   0.01024197
5956.00   1.46606713   0.01012883
5958.00   1.46902839   0.00993341
5960.00   1.47052475   0.00970260
5962.00   1.46562811   0.00936352
5964.00   1.46188649   0.00906162
5966.00   1.46653568   0.00899603
5968.00   1.47507743   0.00911407
5970.00   1.48065221   0.00909810
5972.00   1.47297370   0.00903840
5974.00   1.45138642   0.00943460
5976.00   1.43650819   0.00996800
5978.00   1.43781133   0.01024624
5980.00   1.45240489   0.01025669
5982.00   1.47024141   0.01020738
5984.00   1.48286963   0.00987589
5986.00   1.48193787   0.00920601
5988.00   1.47182616   0.00882750
5990.00   1.46092977   0.00876370
5992.00   1.45287423   0.00904703
5994.00   1.44718113   0.00928911
5996.00   1.44131010   0.00915473
5998.00   1.43573259   0.00883767
6000.00   1.44831813   0.00946335
6002.00   1.46511170   0.01057915
6004.00   1.44781709   0.01096784
6006.00   1.41680276   0.01082842
6008.00   1.39311229   0.01046152
6010.00   1.38795575   0.01001360
6012.00   1.40211432   0.00956592
6014.00   1.43246935   0.00960827
6016.00   1.43443274   0.00950889
6018.00   1.42293741   0.00879455
6020.00   1.41619388   0.00824630
6022.00   1.40440470   0.00810131
6024.00   1.39089844   0.00836537
6026.00   1.38253159   0.00872052
6028.00   1.37183616   0.00868112
6030.00   1.35341096   0.00830622
6032.00   1.35810772   0.00856243
6034.00   1.35026087   0.00865603
6036.00   1.32815961   0.00853378
6038.00   1.31314293   0.00838641
6040.00   1.31120455   0.00823231
6042.00   1.30833056   0.00792554
6044.00   1.30949436   0.00773467
6046.00   1.32348939   0.00769267
6048.00   1.32003159   0.00777986
6050.00   1.31561586   0.00811339
6052.00   1.31685361   0.00834712
6054.00   1.31689951   0.00825758
6056.00   1.30722866   0.00805879
6058.00   1.29042384   0.00837574
6060.00   1.26533271   0.00934975
6062.00   1.24679795   0.00932058
6064.00   1.24189904   0.00853952
6066.00   1.24476357   0.00795974
6068.00   1.24791783   0.00772624
6070.00   1.24948445   0.00760687
6072.00   1.25389694   0.00758617
6074.00   1.26730605   0.00780362
6076.00   1.26326460   0.00809735
6078.00   1.24332361   0.00868815
6080.00   1.22872605   0.00886458
6082.00   1.21755298   0.00848314
6084.00   1.21172159   0.00803013
6086.00   1.21295322   0.00811999
6088.00   1.21114875   0.00859825
6090.00   1.17629142   0.00877695
6092.00   1.15905431   0.00845807
6094.00   1.17131964   0.00801071
6096.00   1.18210201   0.00768296
6098.00   1.18921020   0.00785629
6100.00   1.19757426   0.00850797
6102.00   1.20254994   0.00918008
6104.00   1.19293729   0.00950652
6106.00   1.19647074   0.01022321
6108.00   1.19551844   0.01054667
6110.00   1.17815655   0.01014568
6112.00   1.16448811   0.00973650
6114.00   1.16998283   0.00980230
6116.00   1.19119216   0.01009965
6118.00   1.21105796   0.01005377
6120.00   1.22092248   0.00965467
6122.00   1.23421251   0.00940751
6124.00   1.25868998   0.00906082
6126.00   1.27725325   0.00847177
6128.00   1.28253414   0.00794552
6130.00   1.28148481   0.00777308
6132.00   1.28570638   0.00784708
6134.00   1.29048526   0.00791223
6136.00   1.29351912   0.00790586
6138.00   1.29837106   0.00789974
6140.00   1.30757054   0.00789256
6142.00   1.32226296   0.00780368
6144.00   1.33536755   0.00776442
6146.00   1.33840154   0.00796778
6148.00   1.33312894   0.00834031
6150.00   1.33606350   0.00850439
6152.00   1.33908976   0.00863206
6154.00   1.33960877   0.00856004
6156.00   1.34722994   0.00839144
6158.00   1.35259050   0.00841265
6160.00   1.34847576   0.00863053
6162.00   1.34379904   0.00876098
6164.00   1.35527304   0.00896299
6166.00   1.36162057   0.00901267
6168.00   1.35535716   0.00847105
6170.00   1.33903215   0.00791844
6172.00   1.31760852   0.00750656
6174.00   1.30024503   0.00722682
6176.00   1.29273824   0.00705835
6178.00   1.29050802   0.00705253
6180.00   1.27949926   0.00702834
6182.00   1.26315312   0.00690360
6184.00   1.24438815   0.00663937
6186.00   1.22370604   0.00656721
6188.00   1.20542291   0.00681989
6190.00   1.19087808   0.00713231
6192.00   1.17664505   0.00711792
6194.00   1.16109389   0.00683553
6196.00   1.16217941   0.00679636
6198.00   1.16998015   0.00692704
6200.00   1.17048810   0.00697655
6202.00   1.16103454   0.00706275
6204.00   1.14551977   0.00731423
6206.00   1.13292327   0.00763610
6208.00   1.13435104   0.00772930
6210.00   1.15425263   0.00747302
6212.00   1.16919280   0.00720286
6214.00   1.17733458   0.00706493
6216.00   1.18671437   0.00689890
6218.00   1.20073694   0.00672734
6220.00   1.21887827   0.00667696
6222.00   1.23768809   0.00674826
6224.00   1.24416588   0.00656429
6226.00   1.24493213   0.00639583
6228.00   1.25492944   0.00680123
6230.00   1.26570393   0.00732500
6232.00   1.26917218   0.00761444
6234.00   1.26365778   0.00768864
6236.00   1.25564787   0.00772677
6238.00   1.25539133   0.00769264
6240.00   1.25695093   0.00770628
6242.00   1.25814097   0.00781707
6244.00   1.26623339   0.00750626
6246.00   1.26699996   0.00708057
6248.00   1.25634091   0.00693863
6250.00   1.24753437   0.00707814
6252.00   1.25905006   0.00711620
6254.00   1.27847955   0.00716896
6256.00   1.27976977   0.00716056
6258.00   1.28007231   0.00690014
6260.00   1.27785398   0.00669410
6262.00   1.27407068   0.00660389
6264.00   1.27076111   0.00656802
6266.00   1.26451791   0.00652230
6268.00   1.24225741   0.00647138
6270.00   1.20683141   0.00639588
6272.00   1.17766708   0.00627948
6274.00   1.17918630   0.00640162
6276.00   1.20218060   0.00690072
6278.00   1.22323429   0.00736796
6280.00   1.23094086   0.00748904
6282.00   1.23574243   0.00736568
6284.00   1.23747283   0.00716885
6286.00   1.23442015   0.00667841
6288.00   1.22341103   0.00638337
6290.00   1.20516255   0.00625554
6292.00   1.19566549   0.00628244
6294.00   1.20133209   0.00652492
6296.00   1.21279052   0.00690407
6298.00   1.21689522   0.00699171
6300.00   1.22302657   0.00684915
6302.00   1.22567217   0.00684199
6304.00   1.22577743   0.00691852
6306.00   1.22862831   0.00713534
6308.00   1.22806245   0.00732338
6310.00   1.21564373   0.00732048
6312.00   1.19257515   0.00713450
6314.00   1.17373917   0.00685328
6316.00   1.16828068   0.00653211
6318.00   1.16733618   0.00650193
6320.00   1.16949043   0.00656960
6322.00   1.16991205   0.00672508
6324.00   1.16792302   0.00689897
6326.00   1.16925456   0.00690541
6328.00   1.18225412   0.00656819
6330.00   1.18970531   0.00644641
6332.00   1.18366853   0.00652100
6334.00   1.17061806   0.00660666
6336.00   1.15032827   0.00649224
6338.00   1.13504046   0.00617904
6340.00   1.13766464   0.00594829
6342.00   1.15536521   0.00613096
6344.00   1.16118068   0.00634191
6346.00   1.16524708   0.00662878
6348.00   1.17071326   0.00679255
6350.00   1.16412700   0.00647623
6352.00   1.15164437   0.00595635
6354.00   1.13995171   0.00567819
6356.00   1.12784108   0.00579890
6358.00   1.11128961   0.00604287
6360.00   1.10281847   0.00601517
6362.00   1.09403227   0.00579038
6364.00   1.08586483   0.00573916
6366.00   1.07997246   0.00582245
6368.00   1.06647358   0.00596631
6370.00   1.04496715   0.00605686
6372.00   1.03631536   0.00593482
6374.00   1.05443027   0.00559493
6376.00   1.05280008   0.00552539
6378.00   1.03183834   0.00561073
6380.00   1.01339543   0.00576486
6382.00   1.00603804   0.00587320
6384.00   1.00587125   0.00589010
6386.00   1.00390706   0.00583081
6388.00   0.99572422   0.00571175
6390.00   0.98542895   0.00543833
6392.00   0.97540654   0.00538378
6394.00   0.96313382   0.00555280
6396.00   0.96003675   0.00569307
6398.00   0.95580218   0.00568310
6400.00   0.92756170   0.00555620
6402.00   0.86955369   0.00541460
6404.00   0.84506841   0.00529828
6406.00   0.85705723   0.00524398
6408.00   0.85103348   0.00519388
6410.00   0.83099464   0.00510401
6412.00   0.80453001   0.00503499
6414.00   0.77619299   0.00501300
6416.00   0.74775760   0.00500388
6418.00   0.72585948   0.00502403
6420.00   0.70502850   0.00522770
6422.00   0.68857324   0.00523778
6424.00   0.67786601   0.00507449
6426.00   0.66812954   0.00491507
6428.00   0.65738942   0.00480334
6430.00   0.64473917   0.00470327
6432.00   0.62745514   0.00465014
6434.00   0.60845886   0.00463749
6436.00   0.59033328   0.00456875
6438.00   0.56880620   0.00450955
6440.00   0.55232154   0.00446164
6442.00   0.54363883   0.00441932
6444.00   0.54002410   0.00438545
6446.00   0.53639182   0.00436593
6448.00   0.52999778   0.00434282
6450.00   0.51797239   0.00433770
6452.00   0.50787782   0.00433991
6454.00   0.50525543   0.00433437
6456.00   0.50726709   0.00434346
6458.00   0.50626040   0.00435475
6460.00   0.49856752   0.00433899
6462.00   0.49066690   0.00429612
6464.00   0.49592143   0.00430094
6466.00   0.50485908   0.00433317
6468.00   0.50841297   0.00432301
6470.00   0.51157145   0.00427060
6472.00   0.51696488   0.00422749
6474.00   0.52426921   0.00424972
6476.00   0.53376265   0.00435880
6478.00   0.55309876   0.00455393
6480.00   0.57998306   0.00484478
6482.00   0.59952499   0.00495030
6484.00   0.61238776   0.00483523
6486.00   0.63127851   0.00464786
6488.00   0.66481789   0.00451493
6490.00   0.70912236   0.00447874
6492.00   0.75051249   0.00454185
6494.00   0.78448441   0.00472441
6496.00   0.82212910   0.00494010
6498.00   0.86382005   0.00511483
6500.00   0.91067827   0.00530235
6502.00   0.96518613   0.00544139
6504.00   1.02706739   0.00545316
6506.00   1.09275967   0.00533949
6508.00   1.15884526   0.00524955
6510.00   1.23917766   0.00541666
6512.00   1.32761348   0.00572790
6514.00   1.42808111   0.00597389
6516.00   1.54289494   0.00622719
6518.00   1.66703531   0.00641528
6520.00   1.79721031   0.00640691
6522.00   1.93900324   0.00623193
6524.00   2.07566361   0.00634138
6526.00   2.20728716   0.00657148
6528.00   2.32422425   0.00673608
6530.00   2.43126333   0.00686738
6532.00   2.52739048   0.00695525
6534.00   2.61129393   0.00698576
6536.00   2.68415933   0.00699802
6538.00   2.74561599   0.00713752
6540.00   2.78854805   0.00731977
6542.00   2.82497097   0.00751949
6544.00   2.85514192   0.00792658
6546.00   2.88491280   0.00816064
6548.00   2.91421102   0.00792730
6550.00   2.94142145   0.00746992
6552.00   2.97051744   0.00771165
6554.00   3.00281028   0.00862901
6556.00   3.01155640   0.00891836
6558.00   3.00422559   0.00915578
6560.00   2.99151432   0.00911833
6562.00   2.97772264   0.00847534
6564.00   2.96678692   0.00751984
6566.00   2.96363357   0.00724729
6568.00   2.96354176   0.00750848
6570.00   2.95413149   0.00741061
6572.00   2.94272583   0.00745659
6574.00   2.93187700   0.00755275
6576.00   2.91702753   0.00759559
6578.00   2.89782274   0.00760756
6580.00   2.87601934   0.00759813
6582.00   2.84997323   0.00742426
6584.00   2.82699380   0.00730104
6586.00   2.82145054   0.00734715
6588.00   2.80988253   0.00750360
6590.00   2.78660440   0.00796123
6592.00   2.75917771   0.00832788
6594.00   2.73030677   0.00828890
6596.00   2.69548102   0.00794038
6598.00   2.66884854   0.00760098
6600.00   2.65250001   0.00689946
6602.00   2.62979827   0.00668451
6604.00   2.61630126   0.00707899
6606.00   2.60342045   0.00742672
6608.00   2.58331647   0.00746242
6610.00   2.56107372   0.00740094
6612.00   2.55187980   0.00751796
6614.00   2.53782068   0.00749668
6616.00   2.51215623   0.00739759
6618.00   2.48859195   0.00753938
6620.00   2.47089277   0.00766551
6622.00   2.45733424   0.00770492
6624.00   2.44005374   0.00771815
6626.00   2.41097077   0.00770049
6628.00   2.37589884   0.00733986
6630.00   2.34188466   0.00698554
6632.00   2.30727092   0.00690997
6634.00   2.28581882   0.00683212
6636.00   2.27913987   0.00659430
6638.00   2.27941077   0.00650339
6640.00   2.27695748   0.00697396
6642.00   2.26920988   0.00780490
6644.00   2.25096276   0.00821896
6646.00   2.22779668   0.00883285
6648.00   2.20580907   0.00890083
6650.00   2.18450023   0.00811173
6652.00   2.16537773   0.00707762
6654.00   2.15063976   0.00649315
6656.00   2.13998546   0.00616335
6658.00   2.12784708   0.00594272
6660.00   2.11541630   0.00614427
6662.00   2.09589507   0.00619346
6664.00   2.07005428   0.00614644
6666.00   2.04408010   0.00611253
6668.00   2.02135280   0.00612412
6670.00   2.00105660   0.00613170
6672.00   1.98184051   0.00610180
6674.00   1.95946400   0.00603878
6676.00   1.93053940   0.00600292
6678.00   1.89905039   0.00601627
6680.00   1.86992729   0.00600560
6682.00   1.84288502   0.00590438
6684.00   1.81575158   0.00578896
6686.00   1.78938739   0.00586608
6688.00   1.77013281   0.00619338
6690.00   1.75466787   0.00622872
6692.00   1.73633316   0.00608032
6694.00   1.72232472   0.00595060
6696.00   1.71027527   0.00579129
6698.00   1.69455314   0.00562016
6700.00   1.67446926   0.00557517
6702.00   1.65911492   0.00572414
6704.00   1.63954537   0.00589654
6706.00   1.61670838   0.00582750
6708.00   1.60216493   0.00582757
6710.00   1.58848387   0.00604180
6712.00   1.56933441   0.00619691
6714.00   1.54455405   0.00608711
6716.00   1.51870078   0.00585277
6718.00   1.49148432   0.00566693
6720.00   1.46333319   0.00543838
6722.00   1.44927859   0.00545339
6724.00   1.44435904   0.00550786
6726.00   1.43931337   0.00544834
6728.00   1.43192255   0.00533881
6730.00   1.42360670   0.00533890
6732.00   1.40719881   0.00540985
6734.00   1.38558358   0.00539675
6736.00   1.37403577   0.00535798
6738.00   1.36249424   0.00529793
6740.00   1.34506707   0.00516922
6742.00   1.32114044   0.00505338
6744.00   1.29522634   0.00505792
6746.00   1.27421536   0.00516927
6748.00   1.26266259   0.00518951
6750.00   1.26102692   0.00513629
6752.00   1.26416629   0.00507149
6754.00   1.26482490   0.00508534
6756.00   1.25981359   0.00526962
6758.00   1.25089090   0.00547429
6760.00   1.24141577   0.00547509
6762.00   1.23171691   0.00530374
6764.00   1.22247009   0.00517589
6766.00   1.21653926   0.00497824
6768.00   1.21163511   0.00485753
6770.00   1.20702624   0.00482477
6772.00   1.20021391   0.00482913
6774.00   1.19011936   0.00484814
6776.00   1.17972775   0.00490776
6778.00   1.17569876   0.00490260
6780.00   1.17818198   0.00474838
6782.00   1.17788974   0.00481149
6784.00   1.16577414   0.00493422
6786.00   1.15689048   0.00528714
6788.00   1.16460958   0.00613564
6790.00   1.18279028   0.00713679
6792.00   1.18528112   0.00711685
6794.00   1.18411981   0.00600773
6796.00   1.17952747   0.00540845
6798.00   1.16552096   0.00491267
6800.00   1.15696542   0.00459040
6802.00   1.15625123   0.00457296
6804.00   1.15596433   0.00474884
6806.00   1.15132873   0.00477637
6808.00   1.15033305   0.00474575
6810.00   1.15398334   0.00485350
6812.00   1.15808798   0.00500307
6814.00   1.16316729   0.00525583
6816.00   1.17075449   0.00576059
6818.00   1.17378916   0.00618781
6820.00   1.16201547   0.00606684
6822.00   1.13855466   0.00542896
6824.00   1.13388676   0.00515533
6826.00   1.13964620   0.00495691
6828.00   1.14273017   0.00485673
6830.00   1.14602659   0.00498364
6832.00   1.14927098   0.00519641
6834.00   1.14753105   0.00525437
6836.00   1.13782323   0.00509276
6838.00   1.13388197   0.00502858
6840.00   1.14285567   0.00530848
6842.00   1.14158020   0.00534543
6844.00   1.13163371   0.00516089
6846.00   1.12215109   0.00495596
6848.00   1.11821256   0.00481530
6850.00   1.11791881   0.00467643
6852.00   1.11965243   0.00465627
6854.00   1.11287481   0.00485172
6856.00   1.09827599   0.00504195
6858.00   1.08378471   0.00503805
6860.00   1.07905250   0.00508427
6862.00   1.08624957   0.00537619
6864.00   1.10064346   0.00581882
6866.00   1.11731238   0.00615722
6868.00   1.14654066   0.00662035
6870.00   1.15981216   0.00668379
6872.00   1.16039256   0.00629583
6874.00   1.15235608   0.00589459
6876.00   1.13128888   0.00552945
6878.00   1.10418062   0.00526191
6880.00   1.08561774   0.00529243
6882.00   1.07028273   0.00554763
6884.00   1.05917410   0.00555521
6886.00   1.05637444   0.00556691
6888.00   1.05475295   0.00557502
6890.00   1.05695346   0.00560098
6892.00   1.06303346   0.00558866
6894.00   1.06977435   0.00547673
6896.00   1.07393171   0.00529952
6898.00   1.07099692   0.00528375
6900.00   1.07178769   0.00517081
6902.00   1.07444464   0.00502427
6904.00   1.07359106   0.00492678
6906.00   1.06844139   0.00490259
6908.00   1.05701103   0.00496960
6910.00   1.04024817   0.00509586
6912.00   1.03541179   0.00507422
6914.00   1.04543495   0.00492796
6916.00   1.05212658   0.00484713
6918.00   1.06317155   0.00478810
6920.00   1.07019402   0.00477131
6922.00   1.06697457   0.00479380
6924.00   1.05682406   0.00482973
6926.00   1.05007888   0.00485845
6928.00   1.04306662   0.00492972
6930.00   1.03435422   0.00491336
6932.00   1.02819802   0.00485890
6934.00   1.02028919   0.00486535
6936.00   1.00797972   0.00483824
6938.00   0.99608592   0.00475691
6940.00   0.99192173   0.00476625
6942.00   0.98998303   0.00498831
6944.00   0.99100437   0.00501006
6946.00   1.00331195   0.00490332
6948.00   1.01228734   0.00483696
6950.00   1.01384876   0.00476533
6952.00   1.00982437   0.00468053
6954.00   1.00470506   0.00462809
6956.00   1.00196750   0.00462248
6958.00   1.00303811   0.00454648
6960.00   0.99287612   0.00448468
6962.00   0.98836534   0.00469951
6964.00   1.00124615   0.00495267
6966.00   1.02258385   0.00506961
6968.00   1.03951768   0.00514916
6970.00   1.04953668   0.00537460
6972.00   1.06097284   0.00548159
6974.00   1.07603943   0.00519607
6976.00   1.07951229   0.00516509
6978.00   1.08052996   0.00540621
6980.00   1.07957066   0.00554034
6982.00   1.07575986   0.00541250
6984.00   1.07128995   0.00513580
6986.00   1.07139062   0.00490792
6988.00   1.06307645   0.00468603
6990.00   1.05179568   0.00458948
6992.00   1.04265362   0.00460753
6994.00   1.04017439   0.00462775
6996.00   1.04606722   0.00461958
6998.00   1.05523584   0.00460870
7000.00   1.05953183   0.00462367
7002.00   1.06013869   0.00466610
7004.00   1.06374457   0.00469451
7006.00   1.06581393   0.00468999
7008.00   1.06222749   0.00466862
7010.00   1.05734693   0.00463889
7012.00   1.05448543   0.00461105
7014.00   1.05284151   0.00459191
7016.00   1.04921586   0.00457773
7018.00   1.04769064   0.00457194
7020.00   1.04594348   0.00452510
7022.00   1.04712929   0.00458882
7024.00   1.05999717   0.00496452
7026.00   1.07919725   0.00539994
7028.00   1.09362184   0.00558075
7030.00   1.09728553   0.00543426
7032.00   1.09258474   0.00526421
7034.00   1.07794091   0.00507811
7036.00   1.06518272   0.00486521
7038.00   1.06004288   0.00476657
7040.00   1.05865856   0.00474295
7042.00   1.05691442   0.00471339
7044.00   1.05389766   0.00467710
7046.00   1.05055221   0.00474539
7048.00   1.04507827   0.00497540
7050.00   1.04001551   0.00497619
7052.00   1.03808934   0.00482869
7054.00   1.04266338   0.00488296
7056.00   1.05250969   0.00515854
7058.00   1.06212615   0.00540423
7060.00   1.06590216   0.00540747
7062.00   1.06684425   0.00530891
7064.00   1.06251567   0.00518011
7066.00   1.05322999   0.00494226
7068.00   1.04660279   0.00487397
7070.00   1.04392277   0.00502179
7072.00   1.04386733   0.00517033
7074.00   1.04556446   0.00510660
7076.00   1.04959431   0.00488670
7078.00   1.04739409   0.00493884
7080.00   1.03182615   0.00532318
7082.00   1.02997249   0.00548216
7084.00   1.04423697   0.00538737
7086.00   1.06112128   0.00523608
7088.00   1.07263633   0.00516286
7090.00   1.08413511   0.00510129
7092.00   1.09147117   0.00508541
7094.00   1.08937161   0.00507033
7096.00   1.09072122   0.00516016
7098.00   1.09627775   0.00545008
7100.00   1.09793404   0.00566427
7102.00   1.09119870   0.00570174
7104.00   1.07962193   0.00563052
7106.00   1.07091029   0.00544825
7108.00   1.06541857   0.00492612
7110.00   1.05013112   0.00480290
7112.00   1.02743706   0.00506217
7114.00   1.01424718   0.00523112
7116.00   1.01108261   0.00517803
7118.00   1.01109327   0.00505215
7120.00   1.01311648   0.00504215
7122.00   1.02655310   0.00504100
7124.00   1.03437924   0.00504961
7126.00   1.03458720   0.00514551
7128.00   1.03446852   0.00513208
7130.00   1.03364366   0.00493930
7132.00   1.03009863   0.00476254
7134.00   1.02500113   0.00488776
7136.00   1.02378511   0.00526177
7138.00   1.02272618   0.00529238
7140.00   1.01516475   0.00503343
7142.00   1.00336726   0.00492376
7144.00   0.98951149   0.00495126
7146.00   0.97929013   0.00503954
7148.00   0.97549296   0.00521170
7150.00   0.97572896   0.00550651
7152.00   0.98327533   0.00554906
7154.00   0.99388910   0.00516133
7156.00   0.99768759   0.00488834
7158.00   1.00214040   0.00471711
7160.00   1.00692600   0.00462912
7162.00   1.01045718   0.00468737
7164.00   1.01003908   0.00490274
7166.00   0.99938184   0.00505383
7168.00   0.97807457   0.00500346
7170.00   0.96769688   0.00491580
7172.00   0.96346320   0.00485525
7174.00   0.96274459   0.00479015
7176.00   0.96140490   0.00468423
7178.00   0.95997028   0.00461835
7180.00   0.96465156   0.00477969
7182.00   0.97816880   0.00519126
7184.00   0.98914853   0.00528722
7186.00   1.00534706   0.00514059
7188.00   1.01970303   0.00510774
7190.00   1.02606822   0.00524308
7192.00   1.02980026   0.00540405
7194.00   1.04193343   0.00547629
7196.00   1.06322044   0.00553922
7198.00   1.06843427   0.00547340
7200.00   1.05996039   0.00521629
7202.00   1.05108826   0.00503608
7204.00   1.04216300   0.00485309
7206.00   1.03289804   0.00479288
7208.00   1.02339625   0.00505929
7210.00   1.01420952   0.00555962
7212.00   1.01084560   0.00556564
7214.00   1.00283349   0.00527804
7216.00   0.99703494   0.00514286
7218.00   1.00143436   0.00491173
7220.00   1.01061868   0.00469171
7222.00   1.02031268   0.00465271
7224.00   1.02947731   0.00479284
7226.00   1.03233846   0.00493198
7228.00   1.03170748   0.00511292
7230.00   1.03790682   0.00516097
7232.00   1.03978299   0.00523561
7234.00   1.03394046   0.00548411
7236.00   1.02611493   0.00579567
7238.00   1.02133360   0.00605756
7240.00   1.01587027   0.00633185
7242.00   0.99982952   0.00676216
7244.00   0.98684795   0.00681952
7246.00   0.98155986   0.00643830
7248.00   0.98317794   0.00607177
7250.00   0.99341078   0.00587420
7252.00   1.00727472   0.00577641
7254.00   1.01504307   0.00571428
7256.00   1.01375085   0.00582623
7258.00   1.01409912   0.00583616
7260.00   1.01299340   0.00576387
7262.00   1.01348535   0.00583114
7264.00   1.02111892   0.00593789
7266.00   1.02728994   0.00596294
7268.00   1.02392160   0.00587229
7270.00   1.01754137   0.00573921
7272.00   1.02084346   0.00566338
7274.00   1.01505613   0.00562440
7276.00   1.01939853   0.00567313
7278.00   1.03724756   0.00570944
7280.00   1.05213651   0.00570146
7282.00   1.05724268   0.00570425
7284.00   1.05893824   0.00574253
7286.00   1.05445974   0.00563166
7288.00   1.03931466   0.00532934
7290.00   1.02835497   0.00525089
7292.00   1.01967199   0.00538295
7294.00   1.01511537   0.00547556
7296.00   1.01319120   0.00545587
7298.00   1.01181852   0.00538183
7300.00   1.01132787   0.00527498
7302.00   1.01084429   0.00500136
7304.00   1.01676657   0.00488312
7306.00   1.02861910   0.00502507
7308.00   1.03855987   0.00524966
7310.00   1.04872246   0.00540399
7312.00   1.05946403   0.00554756
7314.00   1.06789022   0.00580870
7316.00   1.07732885   0.00607102
7318.00   1.08526393   0.00614628
7320.00   1.07946723   0.00648144
7322.00   1.06693462   0.00668093
7324.00   1.05009011   0.00658897
7326.00   1.03530488   0.00633664
7328.00   1.02963774   0.00613733
7330.00   1.03487630   0.00602766
7332.00   1.05011709   0.00603830
7334.00   1.06725341   0.00601544
7336.00   1.07641123   0.00613875
7338.00   1.08135908   0.00633104
7340.00   1.08592053   0.00636214
7342.00   1.09391471   0.00618520
7344.00   1.10529944   0.00597462
7346.00   1.11056077   0.00585941
7348.00   1.10617815   0.00576648
7350.00   1.09516176   0.00566749
7352.00   1.07342367   0.00561855
7354.00   1.05406677   0.00552833
7356.00   1.04437567   0.00529878
7358.00   1.04053328   0.00500352
7360.00   1.03453434   0.00495349
7362.00   1.03452105   0.00519542
7364.00   1.03892008   0.00540255
7366.00   1.03724433   0.00550701
7368.00   1.03369249   0.00552126
7370.00   1.03119224   0.00538977
7372.00   1.03004732   0.00521753
7374.00   1.02989646   0.00528754
7376.00   1.03341308   0.00573318
7378.00   1.04116341   0.00590513
7380.00   1.04841515   0.00598681
7382.00   1.05214836   0.00590942
7384.00   1.05695064   0.00552411
7386.00   1.06238608   0.00510192
7388.00   1.06485275   0.00505100
7390.00   1.06375302   0.00525886
7392.00   1.06184496   0.00532016
7394.00   1.05072416   0.00533105
7396.00   1.03656455   0.00537315
7398.00   1.01948702   0.00540916
7400.00   1.00147080   0.00543462
7402.00   0.98725428   0.00543334
7404.00   0.98063124   0.00536735
7406.00   0.97892543   0.00520606
7408.00   0.97876806   0.00504564
7410.00   0.98325291   0.00495078
7412.00   0.99052465   0.00495154
7414.00   0.99678301   0.00499037
7416.00   1.00184122   0.00504171
7418.00   1.00639339   0.00509562
7420.00   1.00815699   0.00510249
7422.00   1.00809343   0.00497504
7424.00   1.01836525   0.00505334
7426.00   1.02695215   0.00517974
7428.00   1.02902604   0.00522236
7430.00   1.02996615   0.00530236
7432.00   1.03047421   0.00543897
7434.00   1.02507601   0.00545980
7436.00   1.01946299   0.00528418
7438.00   1.02461677   0.00528185
7440.00   1.02150949   0.00535313
7442.00   1.01509583   0.00540026
7444.00   1.01018568   0.00550496
7446.00   1.00850749   0.00555307
7448.00   1.01220259   0.00536066
7450.00   1.02587340   0.00494764
7452.00   1.03925590   0.00482211
7454.00   1.03749026   0.00484377
7456.00   1.03403999   0.00488710
7458.00   1.03401852   0.00500085
7460.00   1.03010544   0.00511221
7462.00   1.01831391   0.00517429
7464.00   1.00609908   0.00522443
7466.00   1.00588480   0.00526804
7468.00   1.00581640   0.00522745
7470.00   1.00452745   0.00526461
7472.00   1.00782495   0.00543658
7474.00   1.00926327   0.00552871
7476.00   1.00622810   0.00543874
7478.00   1.00375020   0.00527810
7480.00   1.00953794   0.00528279
7482.00   1.01834342   0.00532085
7484.00   1.02095039   0.00537484
7486.00   1.02090227   0.00543574
7488.00   1.01644938   0.00543300
7490.00   1.00712050   0.00541910
7492.00   0.99665408   0.00539516
7494.00   0.99080302   0.00525961
7496.00   0.98807080   0.00498735
7498.00   0.98410188   0.00486864
7500.00   0.97910624   0.00488149
7502.00   0.97787419   0.00491321
7504.00   0.98171550   0.00491407
7506.00   0.98414913   0.00490377
7508.00   0.97850187   0.00493632
7510.00   0.96832052   0.00503980
7512.00   0.96107598   0.00514547
7514.00   0.95619473   0.00532969
7516.00   0.95801080   0.00552603
7518.00   0.95982648   0.00558673
7520.00   0.95794940   0.00556925
7522.00   0.95446640   0.00560984
7524.00   0.95441378   0.00575122
7526.00   0.95789930   0.00584057
7528.00   0.96657614   0.00574966
7530.00   0.97653041   0.00575603
7532.00   0.98581257   0.00593230
7534.00   0.99331101   0.00607002
7536.00   0.99585326   0.00605507
7538.00   0.99116858   0.00593221
7540.00   0.98210857   0.00579881
7542.00   0.97836281   0.00581049
7544.00   0.97150984   0.00580578
7546.00   0.96536624   0.00554948
7548.00   0.96243425   0.00527821
7550.00   0.95513030   0.00519161
7552.00   0.94396690   0.00524126
7554.00   0.94265410   0.00519988
7556.00   0.95622964   0.00500497
7558.00   0.95310859   0.00501610
7560.00   0.93423608   0.00525591
7562.00   0.92138929   0.00539840
7564.00   0.92053716   0.00541842
7566.00   0.92450106   0.00542365
7568.00   0.92454522   0.00547082
7570.00   0.92291549   0.00544556
7572.00   0.92049132   0.00544839
7574.00   0.91295545   0.00559513
7576.00   0.91855051   0.00556247
7578.00   0.93697111   0.00535674
7580.00   0.95627998   0.00520642
7582.00   0.97154976   0.00531829
7584.00   0.98797293   0.00562179
7586.00   0.98648391   0.00584576
7588.00   0.95622927   0.00555858
7590.00   0.93916828   0.00538302
7592.00   0.91750675   0.00502693
7594.00   0.91127582   0.00563501
7596.00   0.95508365   0.00832593
7598.00   1.04275475   0.01177927
7600.00   1.08690167   0.01400090
7602.00   1.07536705   0.01472617
7604.00   1.01656224   0.01472486
7606.00   0.91230160   0.01380639
7608.00   0.83099714   0.01222093
7610.00   0.77663565   0.01039896
7612.00   0.74020190   0.00874481
7614.00   0.74888926   0.00745724
7616.00   0.82933015   0.00630914
7618.00   0.87874931   0.00597089
7620.00   0.92509620   0.00650871
7622.00   0.94956913   0.00705182
7624.00   0.93034042   0.00742146
7626.00   0.89785532   0.00766887
7628.00   0.90563294   0.00782004
7630.00   0.95250963   0.00785365
7632.00   0.98278046   0.00836274
7634.00   1.00536489   0.00952469
7636.00   1.00369122   0.00970787
7638.00   0.97287962   0.00879347
7640.00   0.93842137   0.00762897
7642.00   0.92182830   0.00716889
7644.00   0.91595817   0.00715976
7646.00   0.91539234   0.00716310
7648.00   0.92600814   0.00716317
7650.00   0.93355546   0.00694908
7652.00   0.93480379   0.00673630
7654.00   0.92826577   0.00649346
7656.00   0.91801148   0.00620396
7658.00   0.91331624   0.00603346
7660.00   0.92536992   0.00632350
7662.00   0.94741680   0.00680588
7664.00   0.96590102   0.00720736
7666.00   0.96444889   0.00709884
7668.00   0.94882110   0.00646701
7670.00   0.93821881   0.00575666
7672.00   0.94268839   0.00543197
7674.00   0.95367683   0.00541166
7676.00   0.96634226   0.00537972
7678.00   0.97532528   0.00568744
7680.00   0.98576980   0.00646794
7682.00   0.98585864   0.00684455
7684.00   0.96889276   0.00660021
7686.00   0.94970874   0.00608308
7688.00   0.94832105   0.00591558
7690.00   0.95485790   0.00614843
7692.00   0.95096704   0.00630988
7694.00   0.95185425   0.00616168
7696.00   0.94619454   0.00619420
7698.00   0.92654368   0.00645217
7700.00   0.89905063   0.00666379
7702.00   0.87851144   0.00656116
7704.00   0.87688185   0.00614552
7706.00   0.90234323   0.00588442
7708.00   0.93659831   0.00629746
7710.00   0.94218338   0.00650060
7712.00   0.92453976   0.00646542
7714.00   0.90549933   0.00653350
7716.00   0.89525195   0.00670069
7718.00   0.88734455   0.00665570
7720.00   0.87820247   0.00639150
7722.00   0.86988545   0.00632483
7724.00   0.85413121   0.00611229
7726.00   0.83528029   0.00571661
7728.00   0.81897026   0.00538156
7730.00   0.80699696   0.00522240
7732.00   0.80055928   0.00515767
7734.00   0.80348298   0.00507418
7736.00   0.81383275   0.00499890
7738.00   0.83461780   0.00530912
7740.00   0.85489902   0.00559518
7742.00   0.86698254   0.00594946
7744.00   0.88344405   0.00672595
7746.00   0.90233451   0.00747381
7748.00   0.90577315   0.00746255
7750.00   0.89088657   0.00665755
7752.00   0.89039928   0.00641807
7754.00   0.88488959   0.00650722
7756.00   0.87380104   0.00645801
7758.00   0.87049646   0.00621705
7760.00   0.87882461   0.00588020
7762.00   0.89302882   0.00557650
7764.00   0.90557101   0.00536641
7766.00   0.90984802   0.00525525
7768.00   0.91068429   0.00542933
7770.00   0.91332225   0.00561260
7772.00   0.91707505   0.00558314
7774.00   0.92674574   0.00553908
7776.00   0.94481405   0.00572399
7778.00   0.96508049   0.00605939
7780.00   0.97075174   0.00606696
7782.00   0.96747761   0.00575731
7784.00   0.96500005   0.00575789
7786.00   0.95691111   0.00589302
7788.00   0.95296298   0.00610700
7790.00   0.95399467   0.00653909
7792.00   0.94993100   0.00707938
7794.00   0.93116174   0.00722104
7796.00   0.91951916   0.00669183
7798.00   0.91719823   0.00622869
7800.00   0.90783072   0.00587301
7802.00   0.89691435   0.00558294
7804.00   0.88357052   0.00541351
7806.00   0.87093306   0.00536931
7808.00   0.86777017   0.00534922
7810.00   0.87862122   0.00524789
7812.00   0.88686540   0.00531194
7814.00   0.89055127   0.00594277
7816.00   0.88985153   0.00670365
7818.00   0.88534298   0.00721745
7820.00   0.87861468   0.00731830
7822.00   0.87263231   0.00700314
7824.00   0.87089014   0.00641170
7826.00   0.87739098   0.00589161
7828.00   0.87960536   0.00551270
7830.00   0.88740218   0.00536220
7832.00   0.90207726   0.00554919
7834.00   0.91511139   0.00589835
7836.00   0.92500820   0.00618713
7838.00   0.93556765   0.00634314
7840.00   0.93182471   0.00645563
7842.00   0.90913031   0.00663446
7844.00   0.89688637   0.00655522
7846.00   0.89013418   0.00645717
7848.00   0.88777973   0.00657677
7850.00   0.88550192   0.00680113
7852.00   0.88112326   0.00693573
7854.00   0.87927452   0.00701175
7856.00   0.88793063   0.00686162
7858.00   0.88302819   0.00677507
7860.00   0.88039078   0.00698955
7862.00   0.88426183   0.00700100
7864.00   0.88378626   0.00676848
7866.00   0.87512091   0.00642964
7868.00   0.86793444   0.00607870
7870.00   0.86817854   0.00570787
7872.00   0.87473335   0.00617481
7874.00   0.88056673   0.00675209
7876.00   0.88556485   0.00687194
7878.00   0.89182608   0.00666452
7880.00   0.89791075   0.00633103
7882.00   0.90160125   0.00605992
7884.00   0.90448046   0.00602688
7886.00   0.90605840   0.00637977
7888.00   0.91640102   0.00680061
7890.00   0.92277997   0.00699300
7892.00   0.91557662   0.00688917
7894.00   0.90585504   0.00662276
7896.00   0.90097842   0.00637795
7898.00   0.89530058   0.00621830
7900.00   0.88901104   0.00600984
7902.00   0.89921624   0.00584469
7904.00   0.90701511   0.00582121
7906.00   0.90708231   0.00585312
7908.00   0.90116236   0.00600822
7910.00   0.89512318   0.00626243
7912.00   0.89367764   0.00654258
7914.00   0.89638252   0.00682518
7916.00   0.89388092   0.00709436
7918.00   0.89388134   0.00707912
7920.00   0.89101277   0.00696088
7922.00   0.88657751   0.00674691
7924.00   0.88442627   0.00645535
7926.00   0.88444473   0.00618989
7928.00   0.88247460   0.00608490
7930.00   0.87970194   0.00600216
7932.00   0.86874817   0.00603913
7934.00   0.86342706   0.00612758
7936.00   0.86437212   0.00608645
7938.00   0.86563926   0.00603286
7940.00   0.86740253   0.00595818
7942.00   0.86960074   0.00575481
7944.00   0.86338304   0.00544403
7946.00   0.85749531   0.00542814
7948.00   0.85938494   0.00551722
7950.00   0.85935442   0.00558886
7952.00   0.86280605   0.00561061
7954.00   0.86754303   0.00565923
7956.00   0.86885045   0.00583273
7958.00   0.86607972   0.00612208
7960.00   0.86479554   0.00631527
7962.00   0.86875933   0.00660042
7964.00   0.86903311   0.00677156
7966.00   0.86434284   0.00659300
7968.00   0.85924969   0.00634855
7970.00   0.85425439   0.00628718
7972.00   0.85003722   0.00635560
7974.00   0.85474856   0.00629856
7976.00   0.86524915   0.00632192
7978.00   0.86146460   0.00627804
7980.00   0.85249021   0.00596882
7982.00   0.84769311   0.00568053
7984.00   0.85188469   0.00558401
7986.00   0.86079797   0.00570589
7988.00   0.86600565   0.00602938
7990.00   0.87068178   0.00657725
7992.00   0.87326988   0.00706365
7994.00   0.86152236   0.00726786
7996.00   0.85403172   0.00700062
7998.00   0.85485298   0.00638723
8000.00   0.85703886   0.00577329
8002.00   0.85514287   0.00551323
8004.00   0.85655844   0.00553445
8006.00   0.85661264   0.00567068
8008.00   0.85390834   0.00574082
8010.00   0.85392624   0.00581055
8012.00   0.85914073   0.00590744
8014.00   0.86933062   0.00596348
8016.00   0.87980648   0.00597792
8018.00   0.88389606   0.00606891
8020.00   0.87906094   0.00629921
8022.00   0.86093659   0.00632349
8024.00   0.84689684   0.00638424
8026.00   0.84452350   0.00669711
8028.00   0.84678700   0.00693455
8030.00   0.85298225   0.00693873
8032.00   0.86493526   0.00679209
8034.00   0.87133868   0.00656179
8036.00   0.85109115   0.00612674
8038.00   0.84749471   0.00595791
8040.00   0.85963941   0.00580388
8042.00   0.86309840   0.00561063
8044.00   0.85668830   0.00557145
8046.00   0.85219948   0.00573000
8048.00   0.85508284   0.00581861
8050.00   0.85491981   0.00572845
8052.00   0.85491387   0.00588915
8054.00   0.85877633   0.00602275
8056.00   0.86441654   0.00598211
8058.00   0.87391054   0.00590695
8060.00   0.88163356   0.00593315
8062.00   0.87635755   0.00608344
8064.00   0.85389012   0.00630487
8066.00   0.84055864   0.00620381
8068.00   0.84400063   0.00584763
8070.00   0.84290486   0.00569638
8072.00   0.83453572   0.00560383
8074.00   0.82638414   0.00561223
8076.00   0.82385856   0.00588122
8078.00   0.82345091   0.00635740
8080.00   0.82253666   0.00643244
8082.00   0.82812746   0.00629734
8084.00   0.83163871   0.00611248
8086.00   0.82825165   0.00570451
8088.00   0.82332558   0.00561183
8090.00   0.81912185   0.00619006
8092.00   0.81562634   0.00698862
8094.00   0.82034793   0.00717774
8096.00   0.84385929   0.00689988
8098.00   0.85176945   0.00670939
8100.00   0.84276025   0.00650881
8102.00   0.83474053   0.00641650
8104.00   0.83768797   0.00652579
8106.00   0.84460362   0.00672175
8108.00   0.83845822   0.00675630
8110.00   0.81310408   0.00672688
8112.00   0.80215258   0.00687678
8114.00   0.81184936   0.00679017
8116.00   0.81900741   0.00661768
8118.00   0.81668456   0.00640777
8120.00   0.80948463   0.00613587
8122.00   0.80247634   0.00586004
8124.00   0.79084536   0.00588256
8126.00   0.77987663   0.00583508
8128.00   0.77680760   0.00561339
8130.00   0.77274874   0.00575000
8132.00   0.76153259   0.00618353
8134.00   0.75651487   0.00646819
8136.00   0.77262630   0.00635916
8138.00   0.80441634   0.00610235
8140.00   0.81565630   0.00634726
8142.00   0.81698355   0.00677174
8144.00   0.81879813   0.00671819
8146.00   0.81298956   0.00628151
8148.00   0.80601026   0.00598961
8150.00   0.80337118   0.00620274
8152.00   0.80362333   0.00668198
8154.00   0.80337089   0.00694559
8156.00   0.80519373   0.00721277
8158.00   0.80842438   0.00720064
8160.00   0.81087720   0.00689577
8162.00   0.80508518   0.00664290
8164.00   0.79413150   0.00654822
8166.00   0.78693889   0.00661110
8168.00   0.78922296   0.00698506
8170.00   0.79802546   0.00776866
8172.00   0.80901643   0.00793255
8174.00   0.81241073   0.00908786
8176.00   0.81927207   0.01150023
8178.00   0.82134453   0.01360956
8180.00   0.80546669   0.01487154
8182.00   0.77570360   0.01556691
8184.00   0.76835066   0.01609033
8186.00   0.78057139   0.01603909
8188.00   0.82374407   0.01668127
8190.00   0.89149830   0.01807911
8192.00   0.92419261   0.01917442
8194.00   0.91574216   0.01977496
8196.00   0.89920871   0.01981579
8198.00   0.89645207   0.01876110
8200.00   0.87438571   0.01603525
8202.00   0.84192589   0.01364766
8204.00   0.82114952   0.01157982
8206.00   0.80979931   0.01004747
8208.00   0.80081369   0.00921563
8210.00   0.79608074   0.00880196
8212.00   0.80215939   0.00835236
8214.00   0.81136272   0.00798229
8216.00   0.81362651   0.00757983
8218.00   0.81373121   0.00731703
8220.00   0.81185867   0.00717752
8222.00   0.80725038   0.00707955
8224.00   0.79560250   0.00699354
8226.00   0.78490944   0.00698194
8228.00   0.79945056   0.00713194
8230.00   0.83889930   0.00741643
8232.00   0.84222641   0.00730709
8234.00   0.83985982   0.00680448
8236.00   0.83335570   0.00645611
8238.00   0.80749568   0.00646896
8240.00   0.77277587   0.00659027
8242.00   0.76164070   0.00649760
8244.00   0.77653276   0.00632566
8246.00   0.78279605   0.00637649
8248.00   0.78279478   0.00632575
8250.00   0.78476652   0.00634543
8252.00   0.78625259   0.00655802
8254.00   0.78272188   0.00671392
8256.00   0.77358352   0.00661596
8258.00   0.76468294   0.00647882
8260.00   0.76492749   0.00650287
8262.00   0.77151433   0.00623532
8264.00   0.77638807   0.00596575
8266.00   0.78494056   0.00581757
8268.00   0.79998463   0.00585249
8270.00   0.81487919   0.00606045
8272.00   0.81813929   0.00637404
8274.00   0.80574763   0.00669915
8276.00   0.79017522   0.00712525
8278.00   0.77701418   0.00735080
8280.00   0.76940960   0.00745135
8282.00   0.76455620   0.00756776
8284.00   0.75626528   0.00771921
8286.00   0.74470981   0.00780662
8288.00   0.74028819   0.00772906
8290.00   0.74288419   0.00757457
8292.00   0.74637499   0.00746885
8294.00   0.74835066   0.00724266
8296.00   0.73683969   0.00714367
8298.00   0.71456840   0.00722960
8300.00   0.69142444   0.00727613
8302.00   0.67559523   0.00702547
8304.00   0.66744419   0.00665767
8306.00   0.66527662   0.00632259
8308.00   0.65916348   0.00590673
8310.00   0.65348575   0.00564202
8312.00   0.64650299   0.00560267
8314.00   0.63435958   0.00564709
8316.00   0.61548671   0.00558020
8318.00   0.59354300   0.00536896
8320.00   0.57135899   0.00530927
8322.00   0.56067957   0.00540697
8324.00   0.55394676   0.00536512
8326.00   0.54358125   0.00534075
8328.00   0.53233125   0.00529105
8330.00   0.52174479   0.00510152
8332.00   0.50893889   0.00482338
8334.00   0.49655552   0.00498113
8336.00   0.49059132   0.00557430
8338.00   0.48657402   0.00624496
8340.00   0.48012474   0.00682237
8342.00   0.47232149   0.00726616
8344.00   0.46706665   0.00758905
8346.00   0.46349968   0.00776980
8348.00   0.45225400   0.00770639
8350.00   0.43286823   0.00746727
8352.00   0.41822989   0.00697635
8354.00   0.40904200   0.00619468
8356.00   0.40293095   0.00557599
8358.00   0.39811293   0.00538607
8360.00   0.39276065   0.00544921
8362.00   0.38453512   0.00543170
8364.00   0.37226889   0.00543501
8366.00   0.35660861   0.00535375
8368.00   0.33467149   0.00499547
8370.00   0.31502342   0.00471788
8372.00   0.30360109   0.00463480
8374.00   0.30051200   0.00466021
8376.00   0.30024807   0.00470817
8378.00   0.29598428   0.00485369
8380.00   0.28968262   0.00505770
8382.00   0.29369822   0.00510723
8384.00   0.28960262   0.00496702
8386.00   0.27805482   0.00477177
8388.00   0.26991462   0.00465880
8390.00   0.26715220   0.00474726
8392.00   0.25964862   0.00509302
8394.00   0.24728591   0.00571692
8396.00   0.23930281   0.00623749
8398.00   0.22940436   0.00637413
8400.00   0.21942069   0.00627321
8402.00   0.21116027   0.00598698
8404.00   0.20375420   0.00556056
8406.00   0.19662552   0.00509326
8408.00   0.19337055   0.00483238
8410.00   0.19559202   0.00500850
8412.00   0.19760870   0.00545295
8414.00   0.19859648   0.00576408
8416.00   0.19832116   0.00581414
8418.00   0.19939217   0.00563639
8420.00   0.20495285   0.00539729
8422.00   0.21485289   0.00535774
8424.00   0.22162859   0.00573132
8426.00   0.21738223   0.00628390
8428.00   0.21118487   0.00660933
8430.00   0.20537338   0.00666855
8432.00   0.20068030   0.00645894
8434.00   0.20214855   0.00603210
8436.00   0.21379530   0.00553914
8438.00   0.22973652   0.00522631
8440.00   0.23445136   0.00496381
8442.00   0.23392998   0.00478320
8444.00   0.24688533   0.00489503
8446.00   0.27105069   0.00502923
8448.00   0.28839245   0.00507308
8450.00   0.29226413   0.00508593
8452.00   0.29724916   0.00517954
8454.00   0.31377047   0.00533638
8456.00   0.31158646   0.00533995
8458.00   0.30585497   0.00545878
8460.00   0.31216981   0.00597971
8462.00   0.32447008   0.00644478
8464.00   0.33794465   0.00654769
8466.00   0.35290909   0.00636676
8468.00   0.36676850   0.00625366
8470.00   0.36516231   0.00589795
8472.00   0.36391595   0.00544670
8474.00   0.37461229   0.00530083
8476.00   0.39253483   0.00518525
8478.00   0.40957955   0.00494583
8480.00   0.42102331   0.00468763
8482.00   0.42847668   0.00464367
8484.00   0.43919220   0.00470902
8486.00   0.45187404   0.00508536
8488.00   0.46499841   0.00568311
8490.00   0.48406055   0.00594747
8492.00   0.50334112   0.00577746
8494.00   0.52433297   0.00559165
8496.00   0.55545298   0.00594598
8498.00   0.59915597   0.00669729
8500.00   0.62156088   0.00702725
8502.00   0.63324933   0.00718207
8504.00   0.64499673   0.00712448
8506.00   0.65754886   0.00669604
8508.00   0.67272779   0.00613193
8510.00   0.68664365   0.00575776
8512.00   0.69124037   0.00558329
8514.00   0.69555440   0.00552552
8516.00   0.71546797   0.00557064
8518.00   0.72287474   0.00555057
8520.00   0.71589452   0.00551756
8522.00   0.70683785   0.00550633
8524.00   0.69928101   0.00551979
8526.00   0.69028523   0.00556360
8528.00   0.68848811   0.00569608
8530.00   0.70588075   0.00594226
8532.00   0.71149671   0.00593571
8534.00   0.70527882   0.00582993
8536.00   0.69720028   0.00578069
8538.00   0.68777995   0.00572961
8540.00   0.67361428   0.00570609
8542.00   0.65592616   0.00595600
8544.00   0.63860575   0.00644613
8546.00   0.63052638   0.00644156
8548.00   0.63250352   0.00615493
8550.00   0.63474179   0.00594748
8552.00   0.63097638   0.00589648
8554.00   0.62228922   0.00586181
8556.00   0.61457299   0.00569282
8558.00   0.61182946   0.00542501
8560.00   0.60713128   0.00527665
8562.00   0.59698406   0.00516263
8564.00   0.59251581   0.00511820
8566.00   0.59155737   0.00517211
8568.00   0.58835204   0.00522500
8570.00   0.58165384   0.00515782
8572.00   0.57620730   0.00499398
8574.00   0.56838269   0.00512395
8576.00   0.55385922   0.00559293
8578.00   0.54537063   0.00579576
8580.00   0.54429215   0.00586740
8582.00   0.55098233   0.00583340
8584.00   0.56350646   0.00565513
8586.00   0.57726122   0.00538146
8588.00   0.58523092   0.00535342
8590.00   0.58657069   0.00532856
8592.00   0.59596148   0.00533479
8594.00   0.61689863   0.00564150
8596.00   0.63686537   0.00596186
8598.00   0.65108744   0.00607517
8600.00   0.66610092   0.00595863
8602.00   0.69065649   0.00574662
8604.00   0.71180855   0.00552910
8606.00   0.73431494   0.00576179
8608.00   0.77101322   0.00624749
8610.00   0.80904323   0.00655196
8612.00   0.84545016   0.00664665
8614.00   0.88091114   0.00660575
8616.00   0.91664092   0.00649064
8618.00   0.95520433   0.00637212
8620.00   0.98627214   0.00652384
8622.00   1.00717681   0.00688091
8624.00   1.03102421   0.00722616
8626.00   1.05421972   0.00739224
8628.00   1.07415703   0.00745582
8630.00   1.09251102   0.00755097
8632.00   1.11295049   0.00768046
8634.00   1.13512898   0.00776708
8636.00   1.15712556   0.00804738
8638.00   1.17894733   0.00808710
8640.00   1.19999684   0.00783499
8642.00   1.21601370   0.00752891
8644.00   1.22537788   0.00733886
8646.00   1.23265095   0.00724918
8648.00   1.24769769   0.00731119
8650.00   1.26510794   0.00746753
8652.00   1.28594968   0.00770891
8654.00   1.30909315   0.00793453
8656.00   1.32330153   0.00820623
8658.00   1.33204525   0.00864189
8660.00   1.34486682   0.00906683
8662.00   1.36335571   0.00902150
8664.00   1.38151719   0.00865005
8666.00   1.40184335   0.00839091
8668.00   1.41710708   0.00792360
8670.00   1.41818679   0.00757802
8672.00   1.40924483   0.00745287
8674.00   1.39978228   0.00744874
8676.00   1.39459578   0.00745958
8678.00   1.38620043   0.00756533
8680.00   1.37838916   0.00759596
8682.00   1.36433576   0.00770876
8684.00   1.35754693   0.00767286
8686.00   1.36821664   0.00734467
8688.00   1.38383234   0.00705726
8690.00   1.38726321   0.00717780
8692.00   1.37963402   0.00750428
8694.00   1.37219802   0.00768171
8696.00   1.35806674   0.00802002
8698.00   1.35292986   0.00812575
8700.00   1.35884781   0.00796256
8702.00   1.35885139   0.00783740
8704.00   1.34241990   0.00797147
8706.00   1.32082875   0.00820432
8708.00   1.32391829   0.00809538
8710.00   1.36718937   0.00770679
8712.00   1.38039432   0.00743382
8714.00   1.35169283   0.00709060
8716.00   1.32233414   0.00684050
8718.00   1.31323667   0.00680127
8720.00   1.31449422   0.00690337
8722.00   1.30858284   0.00696962
8724.00   1.30465670   0.00707233
8726.00   1.29124932   0.00710017
8728.00   1.26351282   0.00707145
8730.00   1.24700227   0.00703288
8732.00   1.24551394   0.00697484
8734.00   1.24696468   0.00693907
8736.00   1.24033088   0.00701360
8738.00   1.23403110   0.00717510
8740.00   1.23272886   0.00741300
8742.00   1.23716283   0.00784778
8744.00   1.23424788   0.00788840
8746.00   1.22396180   0.00746190
8748.00   1.21003161   0.00696760
8750.00   1.19391853   0.00684057
8752.00   1.17396085   0.00693988
8754.00   1.16490352   0.00731331
8756.00   1.16588970   0.00788748
8758.00   1.16492153   0.00854509
8760.00   1.16331956   0.00946163
8762.00   1.15867911   0.01008026
8764.00   1.14353594   0.00999474
8766.00   1.11608880   0.00939039
8768.00   1.09948648   0.00924889
8770.00   1.10974078   0.00926538
8772.00   1.10471560   0.00903256
8774.00   1.08419716   0.00884611
8776.00   1.06311208   0.00881973
8778.00   1.04714998   0.00894694
8780.00   1.03246107   0.00903201
8782.00   1.01754392   0.00874594
8784.00   1.00834729   0.00821973
8786.00   1.00932783   0.00782840
8788.00   1.01142991   0.00739614
8790.00   1.00466610   0.00714162
8792.00   0.98927821   0.00710590
8794.00   0.97479165   0.00720013
8796.00   0.96904731   0.00732886
8798.00   0.96065347   0.00748451
8800.00   0.94375045   0.00719897
8802.00   0.94369757   0.00667906
8804.00   0.94179796   0.00654176
8806.00   0.92455173   0.00684330
8808.00   0.90044927   0.00710430
8810.00   0.88695567   0.00696163
8812.00   0.88744854   0.00663795
8814.00   0.90162439   0.00677105
8816.00   0.91849044   0.00681801
8818.00   0.93649056   0.00730260
8820.00   0.96334542   0.00869665
8822.00   0.98043500   0.01011394
8824.00   0.96733913   0.01079315
8826.00   0.92850799   0.01070674
8828.00   0.90409526   0.01079518
8830.00   0.90635562   0.01139592
8832.00   0.89487871   0.01125363
8834.00   0.87011938   0.01026873
8836.00   0.84887105   0.00907268
8838.00   0.83510965   0.00833908
8840.00   0.82262244   0.00818571
8842.00   0.81283600   0.00814641
8844.00   0.81915663   0.00785214
8846.00   0.82790950   0.00744508
8848.00   0.82901142   0.00711577
8850.00   0.81815392   0.00685586
8852.00   0.79279163   0.00661250
8854.00   0.76568178   0.00643340
8856.00   0.76155465   0.00651460
8858.00   0.78935538   0.00704256
8860.00   0.79517754   0.00738726
8862.00   0.77953766   0.00742239
8864.00   0.76914046   0.00743616
8866.00   0.76391670   0.00736504
8868.00   0.75515377   0.00718896
8870.00   0.73638246   0.00696737
8872.00   0.70995623   0.00672956
8874.00   0.70337694   0.00665979
8876.00   0.71472152   0.00742524
8878.00   0.71679651   0.00823931
8880.00   0.71934262   0.00877774
8882.00   0.72171776   0.00912903
8884.00   0.71776368   0.00932404
8886.00   0.70618601   0.00920971
8888.00   0.69682291   0.00874032
8890.00   0.68209253   0.00807121
8892.00   0.67520130   0.00742331
8894.00   0.67346788   0.00694739
8896.00   0.67207377   0.00692528
8898.00   0.67236573   0.00741900
8900.00   0.67567036   0.00811601
8902.00   0.67307265   0.00854699
8904.00   0.65960555   0.00875483
8906.00   0.65490018   0.00857159
8908.00   0.65733843   0.00829368
8910.00   0.66499355   0.00818190
8912.00   0.67753089   0.00821167
8914.00   0.69072446   0.00839702
8916.00   0.69638350   0.00890602
8918.00   0.69631480   0.00962721
8920.00   0.68631621   0.01002603
8922.00   0.67155536   0.00976280
8924.00   0.66222408   0.00892334
8926.00   0.65173366   0.00783325
8928.00   0.64425617   0.00695072
8930.00   0.65374942   0.00666441
8932.00   0.68395136   0.00689119
8934.00   0.69448261   0.00709610
8936.00   0.69173524   0.00720212
8938.00   0.69609353   0.00720606
8940.00   0.70103535   0.00709254
8942.00   0.71040810   0.00710166
8944.00   0.72864159   0.00740541
8946.00   0.74827409   0.00783670
8948.00   0.74383597   0.00799096
8950.00   0.72389649   0.00800112
8952.00   0.71084530   0.00842337
8954.00   0.71455711   0.00920054
8956.00   0.72761217   0.00986727
8958.00   0.73446120   0.01012801
8960.00   0.72740088   0.00995130
8962.00   0.71647064   0.00940792
8964.00   0.70325479   0.00849748
8966.00   0.69252382   0.00781121
8968.00   0.68956914   0.00749998
8970.00   0.68833484   0.00729758
8972.00   0.68459910   0.00696195
8974.00   0.68150421   0.00662802
8976.00   0.68789397   0.00675722
8978.00   0.71046044   0.00735195
8980.00   0.71708732   0.00764486
8982.00   0.70048911   0.00784724
8984.00   0.68094897   0.00798126
8986.00   0.66225114   0.00797602
8988.00   0.65215907   0.00793203
8990.00   0.66312099   0.00802110
8992.00   0.69681334   0.00817796
8994.00   0.70322124   0.00822596
8996.00   0.69252162   0.00823720
8998.00   0.67549147   0.00826247
9000.00   0.64262129   0.00828252
9002.00   0.61254704   0.00828907
9004.00   0.60206133   0.00823820
9006.00   0.60046563   0.00805016
9008.00   0.59341263   0.00771557
9010.00   0.60176717   0.00743474
9012.00   0.61259342   0.00702590
9014.00   0.62544733   0.00657321
9016.00   0.64097656   0.00640431
9018.00   0.65548494   0.00657164
9020.00   0.66368076   0.00682119
9022.00   0.66527703   0.00704663
9024.00   0.66353764   0.00746569
9026.00   0.66359537   0.00770944
9028.00   0.66826461   0.00787785
9030.00   0.66591672   0.00795070
9032.00   0.65005758   0.00781542
9034.00   0.62920729   0.00754924
9036.00   0.62249844   0.00753918
9038.00   0.63321435   0.00800471
9040.00   0.64011242   0.00807046
9042.00   0.63329864   0.00765856
9044.00   0.62898665   0.00755656
9046.00   0.63208713   0.00775732
9048.00   0.63362597   0.00784821
9050.00   0.62488728   0.00760706
9052.00   0.61780484   0.00738990
9054.00   0.61297736   0.00725332
9056.00   0.59210323   0.00692738
9058.00   0.58012261   0.00674538
9060.00   0.59075118   0.00681719
9062.00   0.60555603   0.00704839
9064.00   0.60069402   0.00738839
9066.00   0.57844667   0.00786087
9068.00   0.57090884   0.00786794
9070.00   0.56831234   0.00738453
9072.00   0.56751422   0.00709259
9074.00   0.57179655   0.00688847
9076.00   0.57588557   0.00693302
9078.00   0.57777120   0.00724879
9080.00   0.58166746   0.00753423
9082.00   0.59185244   0.00728432
9084.00   0.61290134   0.00687855
9086.00   0.62047414   0.00686454
9088.00   0.61220876   0.00687941
9090.00   0.60861096   0.00686638
9092.00   0.61678682   0.00694283
9094.00   0.62859724   0.00712468
9096.00   0.63333050   0.00719819
9098.00   0.63330180   0.00711720
9100.00   0.63247812   0.00721507
9102.00   0.62883677   0.00734762
9104.00   0.62450485   0.00731012
9106.00   0.62811637   0.00711542
9108.00   0.63948485   0.00688521
9110.00   0.64934786   0.00678246
9112.00   0.65358039   0.00694880
9114.00   0.65262909   0.00740695
9116.00   0.63785151   0.00755021
9118.00   0.62531931   0.00740159
9120.00   0.62256814   0.00715951
9122.00   0.62804369   0.00700329
9124.00   0.63595834   0.00700679
9126.00   0.64316177   0.00714448
9128.00   0.65368506   0.00752589
9130.00   0.66915589   0.00817784
9132.00   0.65909387   0.00842016
9134.00   0.62852707   0.00846091
9136.00   0.61221968   0.00832635
9138.00   0.62792409   0.00791079
9140.00   0.65774040   0.00726728
9142.00   0.66974077   0.00717365
9144.00   0.67649106   0.00720953
9146.00   0.66964875   0.00712525
9148.00   0.63453621   0.00756301
9150.00   0.60253528   0.00813908
9152.00   0.59880153   0.00835642
9154.00   0.61753673   0.00809712
9156.00   0.62856101   0.00771267
9158.00   0.63635004   0.00750981
9160.00   0.63635378   0.00735560
9162.00   0.62079876   0.00707031
9164.00   0.59974912   0.00704076
9166.00   0.57497968   0.00758084
9168.00   0.54794323   0.00819632
9170.00   0.52312136   0.00810880
9172.00   0.50153904   0.00725472
9174.00   0.50085949   0.00687844
9176.00   0.51684282   0.00668888
9178.00   0.52620386   0.00643055
9180.00   0.52549393   0.00633664
9182.00   0.52529333   0.00651302
9184.00   0.53787850   0.00675797
9186.00   0.56403726   0.00680493
9188.00   0.58919357   0.00703176
9190.00   0.61213631   0.00809813
9192.00   0.62485466   0.00856284
9194.00   0.62686065   0.00825494
9196.00   0.62450691   0.00789138
9198.00   0.62230339   0.00798197
9200.00   0.62134208   0.00823707
9202.00   0.62884495   0.00833571
9204.00   0.64932759   0.00862422
9206.00   0.66362836   0.00874279
9208.00   0.67370754   0.00849767
9210.00   0.68401689   0.00802987
9212.00   0.68986018   0.00761013
9214.00   0.68690702   0.00754910
9216.00   0.68261037   0.00802978
9218.00   0.68370893   0.00868669
9220.00   0.68012141   0.00872876
9222.00   0.68033486   0.00841294
9224.00   0.68089663   0.00793177
9226.00   0.67997847   0.00750742
9228.00   0.67997066   0.00738789
9230.00   0.68138986   0.00762727
9232.00   0.66965382   0.00771026
9234.00   0.65439252   0.00755126
9236.00   0.64734439   0.00776226
9238.00   0.63974871   0.00788532
9240.00   0.63627709   0.00782198
9242.00   0.63858419   0.00766833
9244.00   0.64281399   0.00749128
9246.00   0.64454604   0.00718433
9248.00   0.65388161   0.00720614
9250.00   0.66946038   0.00750841
9252.00   0.67429507   0.00768731
9254.00   0.66980814   0.00775929
9256.00   0.66471053   0.00772058
9258.00   0.66483230   0.00760421
9260.00   0.67069300   0.00751824
9262.00   0.68916373   0.00763731
9264.00   0.72102297   0.00800493
9266.00   0.73379184   0.00819275
9268.00   0.73059424   0.00811157
9270.00   0.72172325   0.00803050
9272.00   0.71006783   0.00808322
9274.00   0.69547723   0.00817175
9276.00   0.68526852   0.00815476
9278.00   0.67855714   0.00817833
9280.00   0.66718682   0.00810675
9282.00   0.65763056   0.00790544
9284.00   0.64590634   0.00776397
9286.00   0.63343371   0.00767277
9288.00   0.62426280   0.00771476
9290.00   0.61983036   0.00812325
9292.00   0.61315983   0.00886914
9294.00   0.61351644   0.00916385
9296.00   0.61675681   0.00955617
9298.00   0.60922447   0.00996259
9300.00   0.59587678   0.01036313
9302.00   0.59404856   0.01130974
9304.00   0.61493500   0.01303096
9306.00   0.64590771   0.01480461
9308.00   0.65078191   0.01623892
9310.00   0.63871633   0.01747548
9312.00   0.60486596   0.01836137
9314.00   0.53918727   0.01928313
9316.00   0.49166842   0.01977762
9318.00   0.50243512   0.01929326
9320.00   0.54814215   0.01794379
9322.00   0.55456979   0.01732259
9324.00   0.56732855   0.01752541
9326.00   0.56531692   0.01699374
9328.00   0.53141779   0.01550457
9330.00   0.50011724   0.01383545
9332.00   0.48104611   0.01293927
9334.00   0.46353791   0.01301413
9336.00   0.45887987   0.01335167
9338.00   0.48833153   0.01398115
9340.00   0.50708579   0.01430676
9342.00   0.52061499   0.01394682
9344.00   0.53818620   0.01325607
9346.00   0.56264289   0.01250502
9348.00   0.58119429   0.01177941
9350.00   0.57306974   0.01113005
9352.00   0.53769871   0.01091691
9354.00   0.52133912   0.01084547
9356.00   0.50722854   0.01064174
9358.00   0.50086871   0.01069538
9360.00   0.52654019   0.01099316
9362.00   0.56447914   0.01169858
9364.00   0.57534370   0.01294513
9366.00   0.56453242   0.01449436
9368.00   0.59998365   0.01683162
9370.00   0.61721290   0.02133647
9372.00   0.63744948   0.02537932
9374.00   0.66420570   0.02759714
9376.00   0.65638863   0.02798999
9378.00   0.60981782   0.02682954
9380.00   0.57918683   0.02419194
9382.00   0.56358447   0.01998468
9384.00   0.58451253   0.01665267
9386.00   0.68210384   0.01478523
9388.00   0.83646321   0.01449455
9390.00   1.05636954   0.01693658
9392.00   1.18833050   0.01917761
9394.00   1.05482789   0.01813823
9396.00   0.71369553   0.01332850
9398.00   0.57917272   0.01147325
9400.00   0.58650627   0.01143389
9402.00   0.58797977   0.01085872
9404.00   0.58736527   0.01037135
9406.00   0.58936023   0.01046997
9408.00   0.59464626   0.01123614
9410.00   0.60327955   0.01227567
9412.00   0.61194585   0.01226898
9414.00   0.61497997   0.01160504
9416.00   0.61694036   0.01173950
9418.00   0.61869734   0.01247579
9420.00   0.62917573   0.01335535
9422.00   0.63685491   0.01400077
9424.00   0.61374247   0.01438571
9426.00   0.54588396   0.01489185
9428.00   0.52806373   0.01455445
9430.00   0.56294464   0.01250238
9432.00   0.59285565   0.01179202
9434.00   0.63190916   0.01355649
9436.00   0.67491878   0.01656719
9438.00   0.70707215   0.01970017
9440.00   0.72536128   0.02242477
9442.00   0.74110903   0.02265227
9444.00   0.72026381   0.01932746
9446.00   0.65714214   0.01552309
9448.00   0.59588187   0.01280013
9450.00   0.56774678   0.01213885
9452.00   0.55326251   0.01327033
9454.00   0.52083413   0.01502644
9456.00   0.50289762   0.01624683
9458.00   0.56475773   0.01733723
9460.00   0.61758640   0.01760336
9462.00   0.63959499   0.01664637
9464.00   0.62951456   0.01533695
9466.00   0.60180783   0.01424534
9468.00   0.58029856   0.01357246
9470.00   0.58183473   0.01356498
9472.00   0.57391541   0.01468191
9474.00   0.53625611   0.01596536
9476.00   0.50501414   0.01695396
9478.00   0.49708171   0.01710095
9480.00   0.49466081   0.01633961
9482.00   0.49331579   0.01491092
9484.00   0.51027947   0.01317305
9486.00   0.55627884   0.01125333
9488.00   0.56249062   0.01041737
9490.00   0.56778919   0.01088835
9492.00   0.58810884   0.01154198
9494.00   0.58156963   0.01238743
9496.00   0.54894840   0.01354939
9498.00   0.52509616   0.01471884
9500.00   0.53890758   0.01532658
9502.00   0.59126407   0.01532347
9504.00   0.65833704   0.01491366
9506.00   0.68017881   0.01392566
9508.00   0.66238256   0.01255174
9510.00   0.62495382   0.01143392
9512.00   0.58710598   0.01134459
9514.00   0.56194311   0.01219906
9516.00   0.56692615   0.01280378
9518.00   0.59370536   0.01326344
9520.00   0.63022691   0.01477936
9522.00   0.63495387   0.01559088
9524.00   0.60818185   0.01497026
9526.00   0.58792456   0.01343478
9528.00   0.59581690   0.01199139
9530.00   0.60540865   0.01109783
9532.00   0.59113060   0.01039489
9534.00   0.58325886   0.01026278
9536.00   0.59828576   0.01071869
9538.00   0.61538576   0.01110070
9540.00   0.63057226   0.01135873
9542.00   0.65683586   0.01193071
9544.00   0.69642143   0.01296556
9546.00   0.70703930   0.01363039
9548.00   0.66136260   0.01369289
9550.00   0.61920411   0.01443460
9552.00   0.60262745   0.01513170
9554.00   0.60550063   0.01511131
9556.00   0.61782433   0.01460479
9558.00   0.63133349   0.01435213
9560.00   0.63711399   0.01474594
9562.00   0.60305323   0.01526309
9564.00   0.56931986   0.01577003
9566.00   0.58028216   0.01652607
9568.00   0.60371586   0.01695452
9570.00   0.60834345   0.01641444
9572.00   0.59035034   0.01493822
9574.00   0.57041360   0.01328227
9576.00   0.56188358   0.01220683
9578.00   0.55235694   0.01111645
9580.00   0.54675749   0.01051540
9582.00   0.53955556   0.01049187
9584.00   0.53448972   0.01067650
9586.00   0.53154245   0.01072992
9588.00   0.52686629   0.01056324
9590.00   0.51889268   0.01031387
9592.00   0.52537121   0.01037165
9594.00   0.52808085   0.01030549
9596.00   0.52048009   0.01017340
9598.00   0.51266357   0.01021039
9600.00   0.50220161   0.01026697
9602.00   0.49300625   0.01031315
9604.00   0.49669370   0.01059493
9606.00   0.51339220   0.01129939
9608.00   0.52424785   0.01198480
9610.00   0.54476959   0.01254279
9612.00   0.54056663   0.01285898
9614.00   0.51321411   0.01276295
9616.00   0.49295582   0.01244590
9618.00   0.49767083   0.01227007
9620.00   0.50585549   0.01234754
9622.00   0.52727773   0.01225493
9624.00   0.57417959   0.01176537
9626.00   0.58892364   0.01182258
9628.00   0.57603675   0.01256149
9630.00   0.56156740   0.01309465
9632.00   0.55658181   0.01310454
9634.00   0.55145065   0.01297725
9636.00   0.54941727   0.01257379
9638.00   0.55660088   0.01096623
9640.00   0.54532052   0.01048672
9642.00   0.52971914   0.01090491
9644.00   0.53041057   0.01115015
9646.00   0.55187294   0.01110997
9648.00   0.58214570   0.01124918
9650.00   0.60448598   0.01164735
9652.00   0.60391443   0.01204789
9654.00   0.59525067   0.01248792
9656.00   0.59111030   0.01281316
9658.00   0.58231888   0.01291053
9660.00   0.57072336   0.01285520
9662.00   0.56198781   0.01282493
9664.00   0.55451327   0.01295243
9666.00   0.52897833   0.01315681
9668.00   0.52593726   0.01324324
9670.00   0.56207284   0.01332461
9672.00   0.57626228   0.01347941
9674.00   0.57533195   0.01391534
9676.00   0.57849762   0.01443886
9678.00   0.58459840   0.01457312
9680.00   0.56757981   0.01399680
9682.00   0.53967213   0.01348945
9684.00   0.53608518   0.01333326
9686.00   0.54855449   0.01293708
9688.00   0.56274729   0.01257385
9690.00   0.58078894   0.01252573
9692.00   0.59956771   0.01278147
9694.00   0.60488221   0.01307841
9696.00   0.58757560   0.01330452
9698.00   0.57605305   0.01359676
9700.00   0.57454135   0.01378737
9702.00   0.56766889   0.01366362
9704.00   0.54890547   0.01335897
9706.00   0.52783438   0.01302242
9708.00   0.51896587   0.01270499
9710.00   0.52520788   0.01245060
9712.00   0.52784928   0.01268906
9714.00   0.52693883   0.01371851
9716.00   0.54443932   0.01462659
9718.00   0.56409612   0.01532149
9720.00   0.56220008   0.01596977
9722.00   0.54050333   0.01624641
9724.00   0.52370045   0.01550900
9726.00   0.51124676   0.01405328
9728.00   0.50414336   0.01345887
9730.00   0.52412341   0.01318094
9732.00   0.54511401   0.01337830
9734.00   0.56806078   0.01422800
9736.00   0.58413205   0.01499422
9738.00   0.57747447   0.01487516
9740.00   0.54788075   0.01400709
9742.00   0.55627217   0.01358223
9744.00   0.59181881   0.01387154
9746.00   0.62607599   0.01427270
9748.00   0.63966012   0.01410596
9750.00   0.61823031   0.01362759
9752.00   0.56697812   0.01321233
9754.00   0.51047789   0.01275718
9756.00   0.47429709   0.01190417
9758.00   0.46242848   0.01206853
9760.00   0.49074003   0.01223048
9762.00   0.54862834   0.01210723
9764.00   0.59354613   0.01204766
9766.00   0.60437221   0.01199563
9768.00   0.58911300   0.01167540
9770.00   0.56145035   0.01125648
9772.00   0.53270257   0.01103899
9774.00   0.51795121   0.01106950
9776.00   0.49093502   0.01127284
9778.00   0.47323630   0.01162832
9780.00   0.48023008   0.01246421
9782.00   0.50509899   0.01384635
9784.00   0.52775950   0.01527292
9786.00   0.55464300   0.01587710
9788.00   0.56412812   0.01598918
9790.00   0.53806100   0.01642980
9792.00   0.50921626   0.01671785
9794.00   0.50487463   0.01686419
9796.00   0.52712473   0.01708666
9798.00   0.55654783   0.01728670
9800.00   0.57243924   0.01676693
9802.00   0.56901536   0.01544269
9804.00   0.54229933   0.01446293
9806.00   0.50907632   0.01382867
9808.00   0.49384619   0.01389179
9810.00   0.49789349   0.01461911
9812.00   0.51004639   0.01523881
9814.00   0.52395345   0.01493146
9816.00   0.55184454   0.01432967
9818.00   0.56749896   0.01456503
9820.00   0.53928147   0.01439468
9822.00   0.50050655   0.01397806
9824.00   0.47342610   0.01369140
9826.00   0.46294428   0.01370371
9828.00   0.46784683   0.01385967
9830.00   0.49932549   0.01392335
9832.00   0.54292700   0.01372021
9834.00   0.54681892   0.01355927
9836.00   0.54703572   0.01331849
9838.00   0.57008976   0.01320157
9840.00   0.59505600   0.01334333
9842.00   0.59652532   0.01381372
9844.00   0.58360943   0.01460930
9846.00   0.59765581   0.01552724
9848.00   0.60285518   0.01620667
9850.00   0.58249589   0.01690929
9852.00   0.56486149   0.01686635
9854.00   0.55193873   0.01589090
9856.00   0.54529115   0.01458635
9858.00   0.54915802   0.01391365
9860.00   0.55976728   0.01391306
9862.00   0.55073233   0.01446196
9864.00   0.56641161   0.01605118
9866.00   0.59266251   0.01816314
9868.00   0.58371968   0.02001617
9870.00   0.54092978   0.02118256
9872.00   0.50487542   0.02154520
9874.00   0.51129938   0.02125097
9876.00   0.53692426   0.02057096
9878.00   0.54105773   0.01977977
9880.00   0.54066954   0.01842461
9882.00   0.54418554   0.01656792
9884.00   0.52915062   0.01528449
9886.00   0.48236097   0.01561366
9888.00   0.42809432   0.01707673
9890.00   0.42923403   0.01796006
9892.00   0.47307007   0.01771728
9894.00   0.48591129   0.01775513
9896.00   0.48807979   0.01790796
9898.00   0.50772876   0.01754725
9900.00   0.55063992   0.01693665
9902.00   0.59841941   0.01683332
9904.00   0.62206896   0.01758663
9906.00   0.59983239   0.01828334
9908.00   0.55337854   0.01978494
9910.00   0.54086525   0.02169490
9912.00   0.52868267   0.02271155
9914.00   0.51224581   0.02301764
9916.00   0.51318070   0.02291987
9918.00   0.54148484   0.02229930
9920.00   0.55247622   0.02066745
9922.00   0.52771292   0.01872384
9924.00   0.50217157   0.01711555
9926.00   0.52631422   0.01666401
9928.00   0.58766974   0.01764170
9930.00   0.62428723   0.01850792
9932.00   0.60783846   0.01839675
9934.00   0.58262983   0.01841999
9936.00   0.56046632   0.02043246
9938.00   0.48405147   0.02285386
9940.00   0.46240433   0.02528458
9942.00   0.48206889   0.02691031
9944.00   0.48732934   0.02780894
9946.00   0.47288783   0.02850574
9948.00   0.47168094   0.02921852
9950.00   0.46571729   0.02918398
9952.00   0.45867477   0.02936639
9954.00   0.49668870   0.02955294
9956.00   0.52989037   0.02983401
9958.00   0.54052194   0.03073978
9960.00   0.52847896   0.03104318
9962.00   0.51269485   0.02971622
9964.00   0.51906330   0.02743085
9966.00   0.54549932   0.02559946
9968.00   0.55818528   0.02360170
9970.00   0.55800648   0.02210772
9972.00   0.53888943   0.02118281
9974.00   0.51418890   0.02077045
9976.00   0.49573694   0.02065312
9978.00   0.48456291   0.02053453
9980.00   0.47416906   0.02023778
9982.00   0.47289233   0.01988977
9984.00   0.47013870   0.01894944
9986.00   0.46716898   0.01809247
9988.00   0.45827996   0.01786006
9990.00   0.45111298   0.01844299
9992.00   0.46859306   0.01982723
9994.00   0.52650578   0.02174354
9996.00   0.56241211   0.02240305
9998.00   0.56619481   0.02137202
10000.00   0.57762394   0.02102511
10002.00   0.57110559   0.02201122
10004.00   0.56142828   0.02396175
10006.00   0.55873368   0.02636862
10008.00   0.55462948   0.02891603
10010.00   0.54479372   0.03114893
10012.00   0.54825943   0.03209719
10014.00   0.55215529   0.03194596
10016.00   0.58267313   0.03114619
10018.00   0.59934647   0.02973359
10020.00   0.58861912   0.02813162
10022.00   0.57724274   0.02688264
10024.00   0.59853897   0.02616289
10026.00   0.59769025   0.02550605
10028.00   0.58131974   0.02471751
10030.00   0.57524029   0.02377926
10032.00   0.57167254   0.02275889
10034.00   0.58026674   0.02200028
10036.00   0.60228840   0.02170727
10038.00   0.61938804   0.02172757
10040.00   0.60480513   0.02171144
10042.00   0.59104419   0.02223522
10044.00   0.58374860   0.02266202
10046.00   0.55412179   0.02300043
10048.00   0.52744196   0.02395961
10050.00   0.51820984   0.02499822
10052.00   0.51720272   0.02534892
10054.00   0.50711533   0.02521432
10056.00   0.52413045   0.02533105
10058.00   0.53241212   0.02464509
10060.00   0.50980569   0.02434524
10062.00   0.51324910   0.02491106
10064.00   0.54213671   0.02556923
10066.00   0.57248172   0.02562266
10068.00   0.59434171   0.02515759
10070.00   0.62905541   0.02482818
10072.00   0.61870776   0.02479558
10074.00   0.59718799   0.02496587
10076.00   0.63505532   0.02674397
10078.00   0.67046630   0.02956354
10080.00   0.65575637   0.03171190
10082.00   0.60719714   0.03241707
10084.00   0.58271286   0.03245354
10086.00   0.55521651   0.03188231
10088.00   0.53752295   0.02964811
10090.00   0.55719959   0.02766008
10092.00   0.59766413   0.02669304
10094.00   0.61226336   0.02616655
10096.00   0.58061515   0.02553139
10098.00   0.53539188   0.02517162
10100.00   0.54481413   0.02587539
10102.00   0.56226381   0.02688157
10104.00   0.56550181   0.02817564
10106.00   0.59173890   0.02967853
10108.00   0.59775467   0.03021169
10110.00   0.56210550   0.02944585
10112.00   0.51977903   0.02823797
10114.00   0.53563080   0.02816232
10116.00   0.57774562   0.02976506
10118.00   0.59554133   0.03232176
10120.00   0.61273284   0.03532335
10122.00   0.59834301   0.03714109
10124.00   0.55419075   0.03714284
10126.00   0.51720814   0.03584239
10128.00   0.52037835   0.03430713
10130.00   0.53260514   0.03247113
10132.00   0.53851834   0.03143245
10134.00   0.54731211   0.03198696
10136.00   0.53759573   0.03277804
10138.00   0.49812452   0.03369352
10140.00   0.44462486   0.03414296
10142.00   0.41375651   0.03361518
10144.00   0.43842111   0.03256014
10146.00   0.47236404   0.03255373
10148.00   0.48879956   0.03298249
10150.00   0.53961576   0.03389452
10152.00   0.55907973   0.03454927
10154.00   0.51503143   0.03483481
10156.00   0.44378739   0.03504985
10158.00   0.40916674   0.03532789
10160.00   0.38807341   0.03495868
10162.00   0.38079186   0.03427955
10164.00   0.46609689   0.03490803
10166.00   0.56806474   0.03694382
10168.00   0.58370219   0.03969913
10170.00   0.52974426   0.04277101
10172.00   0.49200081   0.04523512
10174.00   0.49565300   0.04537044
10176.00   0.43796822   0.04279043
10178.00   0.41480864   0.04138645
10180.00   0.40033613   0.04110206
10182.00   0.34083659   0.04121645
10184.00   0.30207067   0.04121355
10186.00   0.35103723   0.04129065
10188.00   0.46613951   0.04184031
10190.00   0.56118127   0.04185657
10192.00   0.60828980   0.04046452
10194.00   0.59346130   0.03979605
10196.00   0.49740008   0.03944683
10198.00   0.36387676   0.03956310
10200.00   0.30335501   0.04032159
10202.00   0.36515336   0.04231519
10204.00   0.43737067   0.04640362
10206.00   0.43572965   0.05061496
10208.00   0.44331197   0.05092682
10210.00   0.33282430   0.05156482
10212.00   0.20854251   0.05117285
10214.00   0.20961511   0.04819424
10216.00   0.34005192   0.04355242
10218.00   0.46767127   0.04102601
10220.00   0.55789984   0.04105537
10222.00   0.59947132   0.04161570
10224.00   0.51180026   0.04186084
10226.00   0.38613706   0.04267237
10228.00   0.31803351   0.04390468
10230.00   0.31560376   0.04427541
10232.00   0.33730339   0.04270969
10234.00   0.37736321   0.03988258
10236.00   0.43924168   0.03744538
10238.00   0.41098446   0.03570334
10240.00   0.33959511   0.03467649
10242.00   0.29212799   0.03472668
10244.00   0.28247164   0.03561664
10246.00   0.30335239   0.03667989
10248.00   0.35167711   0.03730992
10250.00   0.41153704   0.03708582
10252.00   0.45220175   0.03735819
10254.00   0.47825615   0.03886651
10256.00   0.47046259   0.03962828
10258.00   0.44340078   0.04046288
10260.00   0.42565209   0.04153563
10262.00   0.43404539   0.04184359
10264.00   0.45931929   0.04049836
10266.00   0.49685977   0.04268206
10268.00   0.50005886   0.04448752
10270.00   0.44073611   0.04269692
10272.00   0.39435887   0.04144966
10274.00   0.40844005   0.04281289
10276.00   0.47349507   0.04577904
10278.00   0.55458571   0.04926920
10280.00   0.69460381   0.05604715
10282.00   0.67148364   0.06443608
10284.00   0.53039719   0.06959343
10286.00   0.50255708   0.07239677
10288.00   0.55569667   0.07342462
10290.00   0.59779601   0.07238472
10292.00   0.58247290   0.06905843
10294.00   0.52842037   0.06490261
10296.00   0.42243897   0.06259037
10298.00   0.36757321   0.06101088
10300.00   0.36512105   0.05770056
10302.00   0.36664484   0.05305786
10304.00   0.35635363   0.04939746
10306.00   0.36720423   0.04848812
10308.00   0.44120931   0.04919319
10310.00   0.53886855   0.04933444
10312.00   0.51606286   0.04777932
10314.00   0.41587299   0.04619585
10316.00   0.30655575   0.04619454
10318.00   0.20002247   0.04793907
10320.00   0.12714002   0.05080795
10322.00   0.14217065   0.05318526
10324.00   0.28774812   0.05218772
10326.00   0.53215498   0.04968770
10328.00   0.68691186   0.05166324
10330.00   0.64717682   0.05299200
10332.00   0.45033811   0.05248056
10334.00   0.24153050   0.05115606
10336.00   0.17136032   0.05029986
10338.00   0.29812450   0.04997906
10340.00   0.49930467   0.05022002
10342.00   0.58174551   0.05056031
10344.00   0.53705435   0.05198157
10346.00   0.44244744   0.05390683
10348.00   0.39119082   0.05514295
10350.00   0.37825829   0.05534818
10352.00   0.34419402   0.05462174
10354.00   0.30354807   0.05239840
10356.00   0.35452572   0.04973192
10358.00   0.32711662   0.05111630
10360.00   0.29976214   0.05360928
10362.00   0.32134596   0.05469060
10364.00   0.32839206   0.05491385
10366.00   0.30237062   0.05567244
10368.00   0.35083099   0.05700711
10370.00   0.52298804   0.05802461
10372.00   0.62955592   0.06072628
10374.00   0.61004777   0.06212030
10376.00   0.54515292   0.06003240
10378.00   0.48748775   0.05627796
10380.00   0.42603932   0.05315601
10382.00   0.34087200   0.05142487
10384.00   0.30471023   0.05065604
10386.00   0.31841568   0.05103257
10388.00   0.27631111   0.05027115
10390.00   0.31755849   0.05053608
10392.00   0.47938744   0.05271893
10394.00   0.67655924   0.05569498
10396.00   0.78623333   0.05828237
10398.00   0.73358101   0.06000819
10400.00   0.48269185   0.05843928
10402.00   0.27494996   0.05345067
10404.00   0.32733339   0.05050764
10406.00   0.46174624   0.04930163
10408.00   0.56159266   0.04866597
10410.00   0.58795006   0.04924176
10412.00   0.53783415   0.05244272
10414.00   0.38745133   0.05689752
10416.00   0.44023438   0.05955824
10418.00   0.52584871   0.06220156
10420.00   0.53499864   0.06383310
10422.00   0.58525630   0.06218602
10424.00   0.59961656   0.05791367
10426.00   0.51203657   0.05348915
10428.00   0.45879517   0.05053825
10430.00   0.54198388   0.04764424
10432.00   0.49740328   0.04573435
10434.00   0.45588703   0.04552909
10436.00   0.42744541   0.04563750
10438.00   0.40860292   0.04487353
10440.00   0.40880261   0.04376669
10442.00   0.42673597   0.04401379
10444.00   0.39730287   0.04606863
10446.00   0.32656488   0.04768698
10448.00   0.22043176   0.04897412
10450.00   0.12866808   0.04847306
10452.00   0.15337384   0.04634522
10454.00   0.29412425   0.04477229
10456.00   0.44293536   0.04529305
10458.00   0.46663259   0.04664427
10460.00   0.36663576   0.04793244
10462.00   0.29818277   0.04986910
10464.00   0.31281188   0.05132426
10466.00   0.38511965   0.05233485
10468.00   0.46956288   0.05255534
10470.00   0.49903083   0.05128895
10472.00   0.43741776   0.04835870
10474.00   0.36109012   0.04561337
10476.00   0.42099655   0.04519158
10478.00   0.41582032   0.04453229
10480.00   0.36948630   0.04416493
10482.00   0.37082246   0.04499829
10484.00   0.37624050   0.04533987
10486.00   0.31296189   0.04349302
10488.00   0.22187345   0.04058435
10490.00   0.22218269   0.04019076
10492.00   0.25844544   0.04050685
10494.00   0.26023755   0.04134113
10496.00   0.27085650   0.04197643
10498.00   0.33634316   0.04166152
10500.00   0.42004751   0.04081326
10502.00   0.43487902   0.04067058
10504.00   0.37023726   0.04141172
10506.00   0.33421472   0.04143592
10508.00   0.33062132   0.04059450
10510.00   0.34592551   0.04032469
10512.00   0.37918634   0.04055412
10514.00   0.40607187   0.04088963
10516.00   0.39763602   0.04122709
10518.00   0.35068533   0.04178118
10520.00   0.31875194   0.04175828
10522.00   0.33751226   0.04159327
10524.00   0.36317161   0.04172708
10526.00   0.35752909   0.04159618
10528.00   0.33102705   0.04123290
10530.00   0.30921064   0.04074082
10532.00   0.30545756   0.04010466
10534.00   0.31453187   0.03947524
10536.00   0.37669466   0.03985048
10538.00   0.40409826   0.04049828
10540.00   0.38719218   0.04080764
10542.00   0.37248903   0.04107965
10544.00   0.34335418   0.04129579
10546.00   0.27326258   0.04102735
10548.00   0.20953425   0.04000883
10550.00   0.28911696   0.03992257
10552.00   0.38083423   0.04047746
10554.00   0.39066682   0.04019130
10556.00   0.37798015   0.03998164
10558.00   0.34959342   0.04001334
10560.00   0.29317520   0.03991965
10562.00   0.22459179   0.03957820
10564.00   0.22602744   0.04007055
10566.00   0.27699770   0.04107976
10568.00   0.31475170   0.04160320
10570.00   0.32603598   0.04176999
10572.00   0.30085188   0.04160204
10574.00   0.27243254   0.04141577
10576.00   0.27374084   0.04153384
10578.00   0.28670209   0.04191971
10580.00   0.24549463   0.04210247
10582.00   0.22650041   0.04245425
10584.00   0.24325669   0.04282278
10586.00   0.24455518   0.04293667
10588.00   0.23059096   0.04283581
10590.00   0.23454214   0.04274260
10592.00   0.27642211   0.04282172
10594.00   0.31632335   0.04295550
10596.00   0.29867630   0.04262495
10598.00   0.26551673   0.04227633
10600.00   0.23660447   0.04211757
10602.00   0.22602648   0.04214785
10604.00   0.24231817   0.04232377
10606.00   0.27844175   0.04255537
10608.00   0.30828667   0.04269058
10610.00   0.32435989   0.04277089
10612.00   0.29695842   0.04239582
10614.00   0.24306643   0.04190564
10616.00   0.20567579   0.04164330
10618.00   0.19880923   0.04156146
10620.00   0.21466249   0.04157743
10622.00   0.23509669   0.04166514
10624.00   0.23484227   0.04141382
10626.00   0.20557185   0.04067919
10628.00   0.19503662   0.04043902
10630.00   0.19203320   0.04050600
10632.00   0.19218967   0.04071735
10634.00   0.21481583   0.04109063
10636.00   0.26105919   0.04152469
10638.00   0.27782533   0.04151223
10640.00   0.26629793   0.04105591
10642.00   0.29483262   0.04074114
10644.00   0.30592259   0.04040748
10646.00   0.28912836   0.04001261
10648.00   0.25147457   0.03951898
10650.00   0.20903044   0.03891212
10652.00   0.17979781   0.03828234
10654.00   0.18040285   0.03796029
10656.00   0.19181226   0.03802953
10658.00   0.22971460   0.03815244
10660.00   0.28606913   0.03825261
10662.00   0.30939063   0.03799025
10664.00   0.29444233   0.03739996
10666.00   0.28214481   0.03690187
10668.00   0.30530795   0.03686889
10670.00   0.29117783   0.03652198
10672.00   0.25877750   0.03599552
10674.00   0.27614466   0.03577161
10676.00   0.30551535   0.03560130
10678.00   0.31907290   0.03548081
10680.00   0.32490740   0.03551331
10682.00   0.34443445   0.03564259
10684.00   0.33216274   0.03542221
10686.00   0.29710091   0.03486426
10688.00   0.30607816   0.03435094
10690.00   0.31854917   0.03397389
10692.00   0.33224366   0.03375232
10694.00   0.34743012   0.03355631
10696.00   0.35251498   0.03329025
10698.00   0.32884001   0.03310327
10700.00   0.34378559   0.03323024
10702.00   0.38431163   0.03320556
10704.00   0.38431444   0.03343101
10706.00   0.34242409   0.03372843
10708.00   0.28744416   0.03356615
10710.00   0.25681997   0.03294286
10712.00   0.27756816   0.03252069
10714.00   0.35224245   0.03232801
10716.00   0.46472609   0.03176430
10718.00   0.50175027   0.03178570
10720.00   0.45637263   0.03212776
10722.00   0.40268374   0.03203221
10724.00   0.37175530   0.03135685
10726.00   0.34488421   0.03062204
10728.00   0.31505234   0.03034745
10730.00   0.31879636   0.03020833
10732.00   0.32788383   0.03006258
10734.00   0.37685301   0.03070088
10736.00   0.47418416   0.03166988
10738.00   0.54879967   0.03210200
10740.00   0.54265680   0.03176885
10742.00   0.48397908   0.03124979
10744.00   0.45841353   0.03042339
10746.00   0.42566774   0.02914100
10748.00   0.45709443   0.02953550
10750.00   0.56846918   0.03093166
10752.00   0.63377448   0.03155284
10754.00   0.58790338   0.03079658
10756.00   0.48589819   0.02938088
10758.00   0.43157222   0.02830486
10760.00   0.43725255   0.02739701
10762.00   0.50295455   0.02676038
10764.00   0.54859815   0.02708183
10766.00   0.57396178   0.02813782
10768.00   0.59329663   0.02928647
10770.00   0.60508324   0.03036836
10772.00   0.59451381   0.03147574
10774.00   0.60149793   0.03114613
10776.00   0.58640507   0.02839486
10778.00   0.52175010   0.02723869
10780.00   0.46669075   0.02858443
10782.00   0.47110622   0.03023074
10784.00   0.53214792   0.03053455
10786.00   0.60216743   0.02949330
10788.00   0.63720090   0.02826818
10790.00   0.66181989   0.02683608
10792.00   0.64814069   0.02567709
10794.00   0.58272694   0.02468781
10796.00   0.52964686   0.02394951
10798.00   0.51922078   0.02416166
10800.00   0.53805164   0.02525239
10802.00   0.55958006   0.02599408
10804.00   0.61489130   0.02581735
10806.00   0.71910066   0.02580076
10808.00   0.74975100   0.02520545
10810.00   0.68315300   0.02385837
10812.00   0.63659104   0.02240883
10814.00   0.65831115   0.02184161
10816.00   0.67235290   0.02280674
10818.00   0.57988854   0.02520510
10820.00   0.56109687   0.02701070
10822.00   0.60729399   0.02706870
10824.00   0.57531847   0.02613499
10826.00   0.55078776   0.02573807
10828.00   0.58812844   0.02714985
10830.00   0.66118743   0.02866184
10832.00   0.71018064   0.02758399
10834.00   0.81151777   0.02957994
10836.00   0.83146459   0.03976864
10838.00   0.68515476   0.04165803
10840.00   0.57809754   0.03543862
10842.00   0.57008749   0.02754968
10844.00   0.60443102   0.02431155
10846.00   0.61001823   0.02453892
10848.00   0.61443760   0.02415538
10850.00   0.59387145   0.02463221
10852.00   0.62707176   0.02353512
10854.00   0.68361889   0.02146364
10856.00   0.71683199   0.02073038
10858.00   0.75142982   0.02152781
10860.00   0.80243327   0.02197349
10862.00   0.81945922   0.02058702
10864.00   0.79538735   0.01860390
10866.00   0.73075097   0.01829651
10868.00   0.69177176   0.01963291
10870.00   0.72580368   0.02109686
10872.00   0.68187994   0.02064797
