# File created by shivutils (I.Shivvers)
# wl(A)   flm    er(optional)
3440.00   0.54151583   0.09479532
3442.00   0.27759090   0.08905486
3444.00   0.49103442   0.09716292
3446.00   0.52524436   0.09862230
3448.00   0.40338573   0.09850109
3450.00   0.26716983   0.09989698
3452.00   0.29377165   0.10167708
3454.00   0.16257463   0.10447482
3456.00   0.60542983   0.11036718
3458.00   0.34424996   0.10760063
3460.00   0.46793947   0.10909163
3462.00   0.37548509   0.10859601
3464.00   0.71981418   0.11322410
3466.00   0.69651425   0.11370943
3468.00   0.58964574   0.11315708
3470.00   0.58716106   0.11605693
3472.00   0.64913017   0.11723749
3474.00   0.50100642   0.11069282
3476.00   0.59900683   0.11419629
3478.00   0.43062690   0.11384707
3480.00   0.24829094   0.11358187
3482.00   0.56059510   0.11805453
3484.00   0.71450579   0.11944798
3486.00   0.65313733   0.12050425
3488.00   0.84083539   0.12326906
3490.00   0.61304998   0.11912590
3492.00   0.63418537   0.11840808
3494.00   0.53961158   0.11661060
3496.00   0.46762326   0.11539008
3498.00   0.61455458   0.11573225
3500.00   0.43807885   0.11391763
3502.00   0.50558567   0.11399923
3504.00   0.52600610   0.11428913
3506.00   0.45741898   0.11271489
3508.00   0.77617341   0.11847126
3510.00   0.41941345   0.11067256
3512.00   0.57659489   0.11268862
3514.00   0.59741378   0.11127076
3516.00   0.56866419   0.10988909
3518.00   0.39931807   0.10758604
3520.00   0.58068752   0.11130781
3522.00   0.41291931   0.10589583
3524.00   0.64535916   0.10890012
3526.00   0.36882484   0.10469639
3528.00   0.40050590   0.10429137
3530.00   0.63259536   0.10646933
3532.00   0.60068214   0.10658448
3534.00   0.48270953   0.10530987
3536.00   0.47330797   0.10583265
3538.00   0.50726986   0.10477784
3540.00   0.47624916   0.10493384
3542.00   0.46601999   0.10463593
3544.00   0.67222506   0.10841022
3546.00   0.54633951   0.10518258
3548.00   0.46721339   0.10306446
3550.00   0.50566703   0.10341292
3552.00   0.48529270   0.10099981
3554.00   0.42121890   0.10066823
3556.00   0.51519310   0.10231385
3558.00   0.42192617   0.10101222
3560.00   0.50231081   0.10226879
3562.00   0.18855835   0.09508946
3564.00   0.65103769   0.09958424
3566.00   0.61983693   0.09995426
3568.00   0.58499646   0.09987946
3570.00   0.53618866   0.09772368
3572.00   0.51393157   0.09908682
3574.00   0.43116328   0.09929391
3576.00   0.65980434   0.09975818
3578.00   0.77984637   0.10233392
3580.00   0.65990007   0.09816644
3582.00   0.62724823   0.09676703
3584.00   0.40092829   0.09189668
3586.00   0.37076563   0.08890210
3588.00   0.32544509   0.08896983
3590.00   0.59210277   0.09655643
3592.00   0.53073972   0.09432597
3594.00   0.55090666   0.09149586
3596.00   0.42115837   0.08867282
3598.00   0.52768785   0.09040095
3600.00   0.49440971   0.08857138
3602.00   0.47719339   0.08870991
3604.00   0.43166140   0.08860865
3606.00   0.41824183   0.08586807
3608.00   0.40815562   0.08682759
3610.00   0.49259487   0.08843353
3612.00   0.49416345   0.08981796
3614.00   0.41594279   0.09208537
3616.00   0.59940362   0.09229435
3618.00   0.40799755   0.08657141
3620.00   0.49545005   0.08716443
3622.00   0.67652583   0.09017712
3624.00   0.43621513   0.08685275
3626.00   0.70112824   0.08935074
3628.00   0.67606753   0.08953249
3630.00   0.54412514   0.09094582
3632.00   0.67024827   0.09143438
3634.00   0.72960138   0.08941825
3636.00   0.62335956   0.08688917
3638.00   0.70655942   0.08904089
3640.00   0.58166808   0.08864478
3642.00   0.69576317   0.09339799
3644.00   0.41013181   0.09140897
3646.00   0.70245695   0.09662508
3648.00   0.48363221   0.11782953
3650.00   0.52469480   0.14191446
3652.00   0.60220706   0.13500972
3654.00   0.45630994   0.11910993
3656.00   0.65155840   0.11202733
3658.00   0.58942121   0.09319104
3660.00   0.48281798   0.09016898
3662.00   0.51593256   0.10251155
3664.00   0.62054884   0.10514742
3666.00   0.46694490   0.08840232
3668.00   0.54002428   0.07970005
3670.00   0.51745009   0.07838952
3672.00   0.50251371   0.07663775
3674.00   0.39760932   0.07313573
3676.00   0.48590764   0.07438541
3678.00   0.58027643   0.07436243
3680.00   0.46571666   0.07209895
3682.00   0.58000201   0.07425915
3684.00   0.44757870   0.07160176
3686.00   0.45988697   0.07067921
3688.00   0.50025564   0.07077714
3690.00   0.49993443   0.07088607
3692.00   0.45274878   0.07065903
3694.00   0.41117287   0.06982020
3696.00   0.64661872   0.07149876
3698.00   0.57145751   0.06950501
3700.00   0.39001131   0.06657304
3702.00   0.54364872   0.06893785
3704.00   0.55031854   0.06802921
3706.00   0.54721391   0.06772850
3708.00   0.63916320   0.06929523
3710.00   0.58029968   0.06785653
3712.00   0.73524082   0.06888058
3714.00   0.65175885   0.06802452
3716.00   0.63596523   0.06769858
3718.00   0.60409689   0.06794773
3720.00   0.59555483   0.06668968
3722.00   0.72111821   0.06857379
3724.00   0.87485433   0.06945080
3726.00   0.76383120   0.06778019
3728.00   0.71952480   0.06720635
3730.00   0.85311943   0.06859541
3732.00   0.82306808   0.06801248
3734.00   0.79698026   0.06668646
3736.00   0.91775835   0.06759972
3738.00   1.08050323   0.07043643
3740.00   1.10042012   0.07226347
3742.00   1.15191615   0.07223923
3744.00   1.19012547   0.07273498
3746.00   1.14099300   0.06955879
3748.00   1.16495717   0.06893429
3750.00   0.98408675   0.06710397
3752.00   1.23110306   0.07070716
3754.00   1.20896125   0.07068744
3756.00   1.04732025   0.06794669
3758.00   1.22735214   0.06900057
3760.00   1.23872757   0.06905524
3762.00   1.19645715   0.06869141
3764.00   1.17450535   0.06761412
3766.00   1.17649460   0.06673419
3768.00   1.08034146   0.06603713
3770.00   1.03085828   0.06616266
3772.00   1.07754183   0.06911825
3774.00   1.14257300   0.06643718
3776.00   1.24532819   0.06777696
3778.00   1.12509739   0.06676956
3780.00   1.11263645   0.06593808
3782.00   1.23607266   0.06704592
3784.00   1.23282576   0.06656088
3786.00   1.20230079   0.06658639
3788.00   1.27846837   0.06767907
3790.00   1.22793055   0.06681787
3792.00   1.25538683   0.06674439
3794.00   1.24515283   0.06605774
3796.00   1.00779843   0.06288134
3798.00   1.09590912   0.06308330
3800.00   1.08674622   0.06336524
3802.00   1.01956928   0.06293181
3804.00   0.97862792   0.06264458
3806.00   1.00036705   0.06197305
3808.00   1.13442409   0.06264296
3810.00   1.17645586   0.06351685
3812.00   1.13434923   0.06308264
3814.00   1.08047843   0.06205922
3816.00   1.17610943   0.06212165
3818.00   1.05434787   0.06175300
3820.00   0.98602670   0.06089734
3822.00   0.96480781   0.06001512
3824.00   1.09293342   0.06191316
3826.00   0.86643523   0.05883542
3828.00   0.87553316   0.05905439
3830.00   0.75506604   0.05764356
3832.00   0.81331336   0.05753404
3834.00   0.82676190   0.05745997
3836.00   0.81759131   0.05725230
3838.00   0.74106783   0.05685747
3840.00   0.69071847   0.05547195
3842.00   0.65463144   0.05464440
3844.00   0.59149176   0.05312234
3846.00   0.62833309   0.05289715
3848.00   0.63702959   0.05260501
3850.00   0.58116597   0.05107150
3852.00   0.50248611   0.05101782
3854.00   0.56166345   0.05150126
3856.00   0.54015857   0.05040843
3858.00   0.53883815   0.04994826
3860.00   0.47020209   0.04869832
3862.00   0.57152069   0.05125541
3864.00   0.57406372   0.05139180
3866.00   0.61519438   0.05148277
3868.00   0.44967234   0.04900590
3870.00   0.54977316   0.04917448
3872.00   0.54286426   0.05091997
3874.00   0.39598396   0.05099426
3876.00   0.57866132   0.05224852
3878.00   0.45585832   0.04886700
3880.00   0.55019742   0.05008052
3882.00   0.52494186   0.04926865
3884.00   0.45694146   0.04935240
3886.00   0.52598101   0.04959877
3888.00   0.57258451   0.05023928
3890.00   0.64530724   0.05040001
3892.00   0.63363594   0.05103613
3894.00   0.64281523   0.05124678
3896.00   0.63126779   0.05202328
3898.00   0.65404737   0.05174567
3900.00   0.65658963   0.05157854
3902.00   0.61259037   0.05132613
3904.00   0.80145442   0.05563448
3906.00   0.85925722   0.06093406
3908.00   0.89456594   0.06456615
3910.00   0.83352077   0.06544619
3912.00   0.81975400   0.06529544
3914.00   0.90068096   0.06293377
3916.00   0.94548482   0.06096135
3918.00   0.82817751   0.05623677
3920.00   0.90095186   0.05511341
3922.00   0.92953128   0.05450663
3924.00   1.07696426   0.05583781
3926.00   1.05869520   0.05476462
3928.00   1.07013130   0.05453946
3930.00   1.12108743   0.05607144
3932.00   1.09680474   0.05686714
3934.00   1.13966870   0.05738777
3936.00   1.20370483   0.05610607
3938.00   1.32721913   0.05683439
3940.00   1.41016960   0.05778265
3942.00   1.46880507   0.06064908
3944.00   1.64496469   0.06350623
3946.00   1.71537566   0.06365998
3948.00   1.69708085   0.06193821
3950.00   1.78478861   0.06179311
3952.00   1.68020475   0.06037634
3954.00   1.85743749   0.06176966
3956.00   1.78890061   0.06113264
3958.00   1.76938951   0.06141370
3960.00   1.89869523   0.06441122
3962.00   1.73279667   0.06444137
3964.00   1.89433718   0.06340661
3966.00   1.96870518   0.06311552
3968.00   1.63463712   0.05867008
3970.00   1.73172224   0.05944691
3972.00   1.71206629   0.06002447
3974.00   1.75143623   0.05952186
3976.00   1.85056818   0.06020581
3978.00   1.81601644   0.06040664
3980.00   1.84892869   0.06058511
3982.00   1.95145702   0.06108746
3984.00   1.77769971   0.05949668
3986.00   1.77083755   0.05903674
3988.00   1.75736642   0.05891052
3990.00   1.85188282   0.06057045
3992.00   1.78376162   0.05924898
3994.00   1.96084464   0.06194966
3996.00   1.91942883   0.06368958
3998.00   1.90875745   0.06280862
4000.00   1.82938325   0.06042979
4002.00   1.96891415   0.06084450
4004.00   1.93151927   0.05959133
4006.00   1.90819442   0.05988115
4008.00   1.94739652   0.06064640
4010.00   1.95941138   0.06110102
4012.00   2.09937406   0.06196686
4014.00   1.96584547   0.06049259
4016.00   1.95443678   0.06072138
4018.00   2.05804181   0.06563223
4020.00   1.97327161   0.06892417
4022.00   1.94553077   0.07082304
4024.00   1.87173188   0.06905553
4026.00   2.00713873   0.06666832
4028.00   1.99441087   0.06343079
4030.00   2.18028259   0.06414382
4032.00   1.94520211   0.06239745
4034.00   2.01359797   0.06194637
4036.00   1.89180779   0.06068810
4038.00   1.93852925   0.06028818
4040.00   1.88937938   0.05983092
4042.00   1.87870848   0.06042814
4044.00   1.81924725   0.08327402
4046.00   1.84147549   0.10911082
4048.00   1.86935794   0.10418624
4050.00   1.93451476   0.07315844
4052.00   1.74851310   0.06217912
4054.00   1.79436874   0.06271134
4056.00   1.68573463   0.06056946
4058.00   1.73963690   0.05815815
4060.00   1.78387618   0.05735929
4062.00   1.48872519   0.05434039
4064.00   1.62233448   0.05513386
4066.00   1.55572581   0.05474474
4068.00   1.73891771   0.05639607
4070.00   1.87473869   0.05685036
4072.00   1.86805427   0.05628106
4074.00   1.98875690   0.05766635
4076.00   1.94001722   0.06392461
4078.00   2.02025199   0.06727167
4080.00   2.05783105   0.06537530
4082.00   2.12998819   0.06302936
4084.00   1.99557030   0.06211331
4086.00   2.02748299   0.06099892
4088.00   2.11275291   0.05994585
4090.00   1.92545366   0.05654420
4092.00   1.96171319   0.05611446
4094.00   2.02108550   0.05627829
4096.00   1.85365534   0.05533023
4098.00   1.83514142   0.05474758
4100.00   1.79197967   0.05458292
4102.00   1.89345825   0.05431380
4104.00   1.92114639   0.05410217
4106.00   1.78878164   0.05326125
4108.00   1.78003514   0.05360982
4110.00   1.79946208   0.05358202
4112.00   1.72628093   0.05267795
4114.00   1.63737476   0.05181159
4116.00   1.59656370   0.05151765
4118.00   1.58683908   0.05075957
4120.00   1.70079637   0.05110721
4122.00   1.59612918   0.05010390
4124.00   1.58710110   0.05054719
4126.00   1.50631392   0.04990585
4128.00   1.57817328   0.05023281
4130.00   1.56272304   0.05083458
4132.00   1.62729692   0.05340422
4134.00   1.54026616   0.05229823
4136.00   1.37952006   0.04986359
4138.00   1.49252975   0.05128202
4140.00   1.58265948   0.05288482
4142.00   1.71765089   0.05260128
4144.00   1.55768323   0.04983636
4146.00   1.63714206   0.04970695
4148.00   1.56430101   0.04957808
4150.00   1.66486537   0.05184956
4152.00   1.71109402   0.05363898
4154.00   1.78349006   0.05336959
4156.00   1.71807826   0.05116908
4158.00   1.77542078   0.05076144
4160.00   1.76857567   0.05096744
4162.00   1.72531223   0.05154788
4164.00   1.79049218   0.05437659
4166.00   1.74452734   0.05433463
4168.00   1.76779521   0.05193402
4170.00   1.62730539   0.04949701
4172.00   1.60946035   0.04865297
4174.00   1.69531298   0.04868393
4176.00   1.62432158   0.04831991
4178.00   1.63419390   0.04893969
4180.00   1.50045907   0.04767496
4182.00   1.53262925   0.04763544
4184.00   1.47189748   0.04618448
4186.00   1.35336578   0.04553216
4188.00   1.40309095   0.04576055
4190.00   1.32235217   0.04505068
4192.00   1.28090942   0.04495653
4194.00   1.27046347   0.04449619
4196.00   1.18084586   0.04351334
4198.00   1.20654380   0.04339677
4200.00   1.10230017   0.04238057
4202.00   1.15429342   0.04318444
4204.00   1.20945334   0.04361970
4206.00   1.24707520   0.04420142
4208.00   1.16058087   0.04373235
4210.00   1.12520969   0.04400656
4212.00   1.09606385   0.04424160
4214.00   1.08704162   0.04359252
4216.00   1.09026551   0.04316003
4218.00   1.14144289   0.04357869
4220.00   1.15513945   0.04381692
4222.00   1.00133479   0.04213801
4224.00   0.99437696   0.04193585
4226.00   1.08874273   0.04276093
4228.00   1.10756397   0.04274620
4230.00   1.12129712   0.04332588
4232.00   0.95338112   0.04276947
4234.00   1.02621698   0.04324939
4236.00   0.92376351   0.04332156
4238.00   0.95032799   0.04382140
4240.00   0.93198454   0.04256100
4242.00   0.95308155   0.04131418
4244.00   0.89110667   0.04370313
4246.00   0.86723238   0.04858693
4248.00   0.90896553   0.04820904
4250.00   0.97129345   0.04341589
4252.00   0.91434932   0.04102078
4254.00   0.94635952   0.04163603
4256.00   0.93040031   0.04171599
4258.00   0.94862431   0.04160471
4260.00   0.93402511   0.04119949
4262.00   0.92958933   0.04066195
4264.00   0.92279464   0.04055089
4266.00   0.99789238   0.04130104
4268.00   0.96959698   0.04111693
4270.00   1.01505685   0.04141932
4272.00   1.01388752   0.04160130
4274.00   0.96386260   0.04128877
4276.00   1.03643179   0.04200043
4278.00   1.00061679   0.04163381
4280.00   0.99697357   0.04221980
4282.00   0.98468250   0.04240486
4284.00   1.05634141   0.04279865
4286.00   1.08984244   0.04272664
4288.00   1.09423482   0.04259393
4290.00   1.04300308   0.04181760
4292.00   1.03471744   0.04201432
4294.00   1.05982292   0.04257740
4296.00   1.04463804   0.04221551
4298.00   0.97814280   0.04146911
4300.00   1.11977792   0.04228828
4302.00   1.10036504   0.04242091
4304.00   1.09249103   0.04282686
4306.00   1.11274421   0.04336159
4308.00   1.25942540   0.04423884
4310.00   1.20759225   0.04433845
4312.00   1.25501025   0.04750339
4314.00   1.26755512   0.04905119
4316.00   1.28016949   0.04782721
4318.00   1.32467663   0.04745547
4320.00   1.32283366   0.04876691
4322.00   1.36879754   0.04887363
4324.00   1.39330351   0.04853152
4326.00   1.38507378   0.04801460
4328.00   1.35166967   0.04635325
4330.00   1.28385270   0.04545186
4332.00   1.22546828   0.04466270
4334.00   1.24735892   0.04538533
4336.00   1.31206298   0.04595646
4338.00   1.25215542   0.04672444
4340.00   1.15033519   0.04611370
4342.00   1.27549219   0.04682539
4344.00   1.26379550   0.04752700
4346.00   1.18877578   0.04935034
4348.00   1.26075530   0.05104923
4350.00   1.24799705   0.04934072
4352.00   1.15114045   0.04788309
4354.00   1.11676478   0.05277380
4356.00   1.20159674   0.09083215
4358.00   1.51009500   0.11502974
4360.00   1.48141456   0.10228930
4362.00   1.40377426   0.06863083
4364.00   1.32050335   0.05371253
4366.00   1.38336849   0.05127811
4368.00   1.31583893   0.04983016
4370.00   1.35083973   0.04957380
4372.00   1.33927882   0.05069741
4374.00   1.42366958   0.05223399
4376.00   1.26269150   0.05125124
4378.00   1.41177189   0.04894680
4380.00   1.36753047   0.04785439
4382.00   1.38769162   0.04789492
4384.00   1.42729092   0.04753695
4386.00   1.42969871   0.04723468
4388.00   1.38621223   0.04716335
4390.00   1.32543993   0.04691667
4392.00   1.36464918   0.04712886
4394.00   1.42680621   0.04722939
4396.00   1.39029968   0.04679035
4398.00   1.36862731   0.04758225
4400.00   1.34597754   0.04827387
4402.00   1.37066293   0.04791015
4404.00   1.39488363   0.04666597
4406.00   1.43074751   0.04655438
4408.00   1.42309809   0.04683472
4410.00   1.41024292   0.04691660
4412.00   1.47453439   0.04714770
4414.00   1.46384108   0.04813188
4416.00   1.46169972   0.04836091
4418.00   1.41128910   0.04686930
4420.00   1.42162383   0.04667811
4422.00   1.55572319   0.04748848
4424.00   1.53339159   0.04716290
4426.00   1.40871108   0.04644060
4428.00   1.33533168   0.04585663
4430.00   1.41049802   0.04654207
4432.00   1.39010322   0.04666885
4434.00   1.37053061   0.04615527
4436.00   1.41130292   0.04627567
4438.00   1.43889189   0.04638036
4440.00   1.34579325   0.04596820
4442.00   1.39804626   0.04565755
4444.00   1.27540040   0.04546859
4446.00   1.34035063   0.04553998
4448.00   1.25044870   0.04455418
4450.00   1.31527388   0.04501340
4452.00   1.21092248   0.04442208
4454.00   1.28297389   0.04467238
4456.00   1.15042770   0.04404348
4458.00   1.14563859   0.04422199
4460.00   1.21665680   0.04445016
4462.00   1.10882378   0.04338459
4464.00   1.14560723   0.04380457
4466.00   1.11792731   0.04359807
4468.00   1.19023371   0.04354718
4470.00   1.16026807   0.04385993
4472.00   1.14801860   0.04367661
4474.00   1.10489702   0.04352567
4476.00   1.12669563   0.04338396
4478.00   1.08430755   0.04295476
4480.00   1.02472651   0.04248381
4482.00   1.15881205   0.04364910
4484.00   1.07400179   0.04300914
4486.00   1.12630367   0.04328129
4488.00   1.23593640   0.04382804
4490.00   1.04479587   0.04297858
4492.00   1.14050710   0.04397538
4494.00   1.13873458   0.04408346
4496.00   1.20069826   0.04434403
4498.00   1.23201776   0.04442070
4500.00   1.18996823   0.04401683
4502.00   1.19483483   0.04373449
4504.00   1.31121242   0.04438133
4506.00   1.33275366   0.04465014
4508.00   1.25833428   0.04377090
4510.00   1.27260160   0.04380674
4512.00   1.33604336   0.04391026
4514.00   1.33069670   0.04388362
4516.00   1.40821922   0.04410276
4518.00   1.52945364   0.04484544
4520.00   1.54676461   0.04490698
4522.00   1.63662803   0.04538056
4524.00   1.63160205   0.04593760
4526.00   1.74075532   0.04570672
4528.00   1.70640719   0.04540702
4530.00   1.91457427   0.04680990
4532.00   1.96644485   0.04699380
4534.00   2.00355434   0.04730921
4536.00   1.99418414   0.04689863
4538.00   2.09670734   0.04761108
4540.00   2.10121417   0.04762867
4542.00   2.15361333   0.04841666
4544.00   2.19919109   0.04911843
4546.00   2.36974192   0.04956610
4548.00   2.38738227   0.04952727
4550.00   2.38662839   0.04902279
4552.00   2.47540379   0.04941116
4554.00   2.71534586   0.05097034
4556.00   2.68364477   0.05092358
4558.00   2.73725176   0.05114378
4560.00   2.72842979   0.05094890
4562.00   2.93394184   0.05175924
4564.00   2.87021875   0.05140872
4566.00   2.83276844   0.05107670
4568.00   2.92908621   0.05152069
4570.00   2.88383889   0.05120927
4572.00   2.93032813   0.05165005
4574.00   2.91776538   0.05179109
4576.00   2.97312903   0.05176113
4578.00   2.93165922   0.05121988
4580.00   2.82610488   0.05055826
4582.00   2.92531943   0.05047832
4584.00   2.89259362   0.05003748
4586.00   2.85226750   0.04997955
4588.00   2.95855355   0.05061468
4590.00   2.77881312   0.05089186
4592.00   2.84407997   0.05033141
4594.00   2.89881396   0.05033282
4596.00   2.86763000   0.05010945
4598.00   2.85210156   0.04995196
4600.00   2.85216451   0.04968975
4602.00   2.89234281   0.04978832
4604.00   2.92696953   0.05006905
4606.00   2.78109002   0.05091400
4608.00   2.77951050   0.04948930
4610.00   2.73155165   0.04943658
4612.00   2.88762116   0.04986414
4614.00   2.88711715   0.04964511
4616.00   2.88472962   0.04953294
4618.00   2.96734333   0.04990188
4620.00   2.87705016   0.04906336
4622.00   2.94795942   0.04966996
4624.00   2.86841583   0.04904360
4626.00   2.89325571   0.04937119
4628.00   2.94694638   0.04962208
4630.00   2.96545649   0.04976826
4632.00   2.97153139   0.04980657
4634.00   2.98661947   0.04973158
4636.00   3.03881931   0.04982061
4638.00   2.98648810   0.04978102
4640.00   2.88641119   0.04939351
4642.00   2.96310663   0.04953655
4644.00   3.03161168   0.04975740
4646.00   2.91584277   0.04900115
4648.00   2.90522432   0.04923332
4650.00   2.91764712   0.04965284
4652.00   2.83807206   0.04923653
4654.00   2.88376904   0.04937179
4656.00   2.89946628   0.04965869
4658.00   2.85037827   0.04953149
4660.00   2.87138104   0.04979873
4662.00   2.75946879   0.04977359
4664.00   2.81905031   0.05043410
4666.00   2.79426980   0.05091935
4668.00   2.71878242   0.05110169
4670.00   2.75875568   0.05136586
4672.00   2.82313657   0.05126727
4674.00   2.79018044   0.05057530
4676.00   2.70003486   0.04956933
4678.00   2.73619175   0.04922599
4680.00   2.80012345   0.04912784
4682.00   2.75121737   0.04874790
4684.00   2.74835467   0.04831043
4686.00   2.64632487   0.04758868
4688.00   2.63265753   0.04729930
4690.00   2.57282925   0.04693219
4692.00   2.57726955   0.04675426
4694.00   2.46275902   0.04600232
4696.00   2.39459634   0.04550994
4698.00   2.43733025   0.04560126
4700.00   2.38282228   0.04531015
4702.00   2.36826229   0.04511820
4704.00   2.33039641   0.04509118
4706.00   2.22487473   0.04472053
4708.00   2.34038544   0.04567766
4710.00   2.32924032   0.04548144
4712.00   2.09351754   0.04407201
4714.00   2.17931843   0.04424671
4716.00   2.04725266   0.04326969
4718.00   2.16105270   0.04373628
4720.00   2.21330905   0.04377570
4722.00   2.09495425   0.04345543
4724.00   2.19099736   0.04384270
4726.00   2.22459316   0.04483499
4728.00   2.15314245   0.04590606
4730.00   2.10173917   0.04596518
4732.00   2.09474993   0.04585247
4734.00   2.15971851   0.04678793
4736.00   2.18911743   0.04722806
4738.00   2.11029696   0.04753881
4740.00   2.18561840   0.04865283
4742.00   2.06793165   0.04905856
4744.00   2.08615518   0.04823375
4746.00   2.00220799   0.04532873
4748.00   1.97899997   0.04341326
4750.00   2.07304025   0.04380088
4752.00   1.95332336   0.04371541
4754.00   1.93756640   0.04327730
4756.00   1.92847610   0.04232510
4758.00   1.86470771   0.04094302
4760.00   1.90170467   0.04055184
4762.00   1.89691889   0.04058851
4764.00   1.90181983   0.04032262
4766.00   1.84384692   0.03987114
4768.00   1.81268787   0.03948196
4770.00   1.74256778   0.03883830
4772.00   1.81384778   0.03953047
4774.00   1.69199741   0.03857727
4776.00   1.70549679   0.03918459
4778.00   1.61173749   0.03957277
4780.00   1.59869421   0.03957099
4782.00   1.58762026   0.03847282
4784.00   1.50996912   0.03746536
4786.00   1.48707068   0.03722301
4788.00   1.43385935   0.03686631
4790.00   1.38981473   0.03686623
4792.00   1.42591488   0.03682960
4794.00   1.38311386   0.03620942
4796.00   1.35080349   0.03586489
4798.00   1.31186056   0.03542959
4800.00   1.28902662   0.03523829
4802.00   1.34868872   0.03563873
4804.00   1.27084231   0.03524365
4806.00   1.36362743   0.03607968
4808.00   1.43635225   0.03643729
4810.00   1.45621490   0.03680718
4812.00   1.55771303   0.03767128
4814.00   1.62163472   0.03803770
4816.00   1.68421662   0.03845636
4818.00   1.83327818   0.03990436
4820.00   1.99502075   0.04092199
4822.00   2.19290733   0.04222180
4824.00   2.37855816   0.04385084
4826.00   2.32947159   0.04353157
4828.00   2.57315922   0.04502837
4830.00   2.64404202   0.04556347
4832.00   2.80839419   0.04676087
4834.00   2.90486455   0.04726690
4836.00   2.98379850   0.04754723
4838.00   3.18334365   0.04924734
4840.00   3.19496131   0.04974850
4842.00   3.16857314   0.04933624
4844.00   3.32200265   0.04957543
4846.00   3.26205349   0.04927700
4848.00   3.29318428   0.04977514
4850.00   3.29718471   0.04977502
4852.00   3.36732292   0.05012470
4854.00   3.26993275   0.04951561
4856.00   3.19542766   0.04902491
4858.00   3.24931407   0.04908956
4860.00   3.19781184   0.04886784
4862.00   3.13180113   0.04865450
4864.00   3.07003546   0.04850060
4866.00   3.05502915   0.04834494
4868.00   3.08500648   0.04830102
4870.00   3.10940409   0.04805823
4872.00   2.99328709   0.04763050
4874.00   3.06123471   0.04798802
4876.00   3.01689100   0.04799196
4878.00   3.05735326   0.04827967
4880.00   3.00143194   0.04793929
4882.00   3.08884168   0.04833039
4884.00   2.99189878   0.04760412
4886.00   3.11874294   0.04772069
4888.00   3.10085392   0.04758328
4890.00   3.13602591   0.04806339
4892.00   3.31418419   0.04909193
4894.00   3.39285326   0.04939814
4896.00   3.50768590   0.04998983
4898.00   3.44492340   0.04949309
4900.00   3.54536891   0.04978788
4902.00   3.57475495   0.04986664
4904.00   3.51134801   0.04965324
4906.00   3.60147071   0.05019744
4908.00   3.56412029   0.05009165
4910.00   3.60940647   0.05026419
4912.00   3.53883553   0.04985037
4914.00   3.58592010   0.05019470
4916.00   3.54305172   0.04966184
4918.00   3.49882364   0.04929863
4920.00   3.40700150   0.04882423
4922.00   3.38151121   0.04871431
4924.00   3.29722404   0.04815931
4926.00   3.28326511   0.04762620
4928.00   3.42539501   0.04822371
4930.00   3.26048899   0.04720283
4932.00   3.18801665   0.04685484
4934.00   3.15639424   0.04678302
4936.00   3.22494864   0.04707249
4938.00   3.05076790   0.04621802
4940.00   2.97865605   0.04621013
4942.00   2.89639139   0.04525508
4944.00   2.90996814   0.04528845
4946.00   2.84767628   0.04479028
4948.00   2.81928658   0.04451351
4950.00   2.73958707   0.04439746
4952.00   2.64334154   0.04409602
4954.00   2.65489960   0.04442830
4956.00   2.66398335   0.04434173
4958.00   2.57036662   0.04364562
4960.00   2.53965783   0.04343104
4962.00   2.50777531   0.04321061
4964.00   2.41351175   0.04292140
4966.00   2.33107066   0.04259381
4968.00   2.38828993   0.04314905
4970.00   2.34428263   0.04356270
4972.00   2.29076886   0.04405292
4974.00   2.27208948   0.04503458
4976.00   2.30247164   0.04626173
4978.00   2.37647867   0.04825860
4980.00   2.42181563   0.05019742
4982.00   2.54079342   0.05158045
4984.00   2.67144680   0.05222862
4986.00   2.74336886   0.05148242
4988.00   2.74058199   0.05021928
4990.00   2.81306744   0.04945011
4992.00   2.92777753   0.04933891
4994.00   2.98883772   0.04833622
4996.00   3.03942418   0.04778536
4998.00   3.02024484   0.04682596
5000.00   2.95683479   0.04615677
5002.00   3.06529331   0.04651460
5004.00   3.09735417   0.04654687
5006.00   3.02636027   0.04593012
5008.00   3.05221367   0.04584282
5010.00   2.94899201   0.04515418
5012.00   2.99286842   0.04525710
5014.00   3.04415751   0.04558621
5016.00   3.10520840   0.04595175
5018.00   2.98984766   0.04605590
5020.00   3.06816459   0.04612461
5022.00   2.93334079   0.04535796
5024.00   2.99061728   0.04515379
5026.00   3.00484419   0.04508797
5028.00   2.94086552   0.04531556
5030.00   2.85423517   0.04508086
5032.00   2.82802629   0.04459527
5034.00   2.82641721   0.04437002
5036.00   2.82725382   0.04416826
5038.00   2.75408745   0.04370337
5040.00   2.71093106   0.04337290
5042.00   2.77520633   0.04373235
5044.00   2.70454454   0.04346966
5046.00   2.68269467   0.04346253
5048.00   2.69855380   0.04345682
5050.00   2.70624828   0.04357217
5052.00   2.70697999   0.04344521
5054.00   2.64253736   0.04320304
5056.00   2.59600043   0.04296322
5058.00   2.49989200   0.04248301
5060.00   2.45961404   0.04227539
5062.00   2.44223166   0.04286109
5064.00   2.39398527   0.04305352
5066.00   2.32230163   0.04284786
5068.00   2.22572875   0.04329767
5070.00   2.26368141   0.04385684
5072.00   2.20021844   0.04278776
5074.00   2.09833145   0.04186239
5076.00   1.99429858   0.04092942
5078.00   2.09865570   0.04196502
5080.00   2.06217289   0.04417931
5082.00   1.98928738   0.04652624
5084.00   1.93365562   0.04801776
5086.00   1.89512002   0.04810796
5088.00   1.98380291   0.04653172
5090.00   1.85770285   0.04321754
5092.00   1.89103734   0.04141258
5094.00   1.86836898   0.04051273
5096.00   1.88085926   0.04098837
5098.00   1.86043143   0.04185672
5100.00   1.83146060   0.04179076
5102.00   1.70954096   0.04018525
5104.00   1.64747965   0.03877250
5106.00   1.71529543   0.03843086
5108.00   1.63828921   0.03767831
5110.00   1.60082769   0.03741300
5112.00   1.55831671   0.03741124
5114.00   1.52344775   0.03738179
5116.00   1.59070992   0.03819123
5118.00   1.48771703   0.03708798
5120.00   1.49186242   0.03687939
5122.00   1.56965411   0.03686962
5124.00   1.46537876   0.03636237
5126.00   1.54132807   0.03644738
5128.00   1.61890233   0.03711487
5130.00   1.65239155   0.03754713
5132.00   1.67291951   0.03770285
5134.00   1.69208360   0.03783376
5136.00   1.71865499   0.03797844
5138.00   1.79503584   0.03889832
5140.00   1.82794511   0.03904684
5142.00   1.88678491   0.03954262
5144.00   1.86419451   0.03957998
5146.00   1.90000939   0.04028922
5148.00   2.04863381   0.04196287
5150.00   2.08704948   0.04288898
5152.00   2.17579603   0.04440584
5154.00   2.20705676   0.04483290
5156.00   2.24851441   0.04477094
5158.00   2.27996087   0.04429076
5160.00   2.23594213   0.04319581
5162.00   2.30833650   0.04321199
5164.00   2.29379225   0.04263584
5166.00   2.39333057   0.04315106
5168.00   2.37674308   0.04281144
5170.00   2.35469937   0.04276058
5172.00   2.43603158   0.04345173
5174.00   2.45201945   0.04361876
5176.00   2.42564321   0.04377305
5178.00   2.52380586   0.04443236
5180.00   2.48906922   0.04407567
5182.00   2.59404016   0.04483099
5184.00   2.58165765   0.04463876
5186.00   2.54433322   0.04468138
5188.00   2.76187801   0.04602424
5190.00   2.67491174   0.04555649
5192.00   2.70683765   0.04591210
5194.00   2.67314625   0.04577031
5196.00   2.79351258   0.04706650
5198.00   2.75588942   0.04700038
5200.00   2.78806043   0.04727107
5202.00   2.78124666   0.04736117
5204.00   2.73112655   0.04675197
5206.00   2.72948122   0.04662886
5208.00   2.80180073   0.04774687
5210.00   2.86146402   0.04826665
5212.00   2.78559065   0.04801717
5214.00   2.72344398   0.04742698
5216.00   2.75769234   0.04759860
5218.00   2.78735924   0.04794351
5220.00   2.59942222   0.04713021
5222.00   2.75859976   0.04785851
5224.00   2.67634892   0.04712382
5226.00   2.76468277   0.04757503
5228.00   2.64586663   0.04684030
5230.00   2.80573654   0.04794278
5232.00   2.61674929   0.04689075
5234.00   2.61147523   0.04713885
5236.00   2.75258851   0.04793117
5238.00   2.67186594   0.04807101
5240.00   2.67731500   0.04811870
5242.00   2.80930328   0.04869045
5244.00   2.71253777   0.04804396
5246.00   2.76444817   0.04818895
5248.00   2.68336844   0.04784605
5250.00   2.74739408   0.04825960
5252.00   2.77649879   0.04862072
5254.00   2.68994498   0.04821817
5256.00   2.62818217   0.04841266
5258.00   2.66554880   0.04941728
5260.00   2.65190625   0.04897150
5262.00   2.69942236   0.04893395
5264.00   2.60397840   0.04808216
5266.00   2.64537954   0.04843370
5268.00   2.60849333   0.04814785
5270.00   2.57379270   0.04808282
5272.00   2.54542089   0.04787856
5274.00   2.61068654   0.04876502
5276.00   2.57403779   0.04849848
5278.00   2.59594488   0.04875018
5280.00   2.66691852   0.04905704
5282.00   2.63966227   0.04930471
5284.00   2.51474667   0.04893957
5286.00   2.82098389   0.05102855
5288.00   2.69818926   0.05022880
5290.00   2.74329829   0.05056285
5292.00   2.79314637   0.05083663
5294.00   2.76729274   0.05089002
5296.00   2.82311034   0.05117823
5298.00   2.96702027   0.05240808
5300.00   2.90054297   0.05231149
5302.00   2.89256907   0.05228655
5304.00   2.86176467   0.05209149
5306.00   2.82144046   0.05183648
5308.00   2.95444036   0.05274241
5310.00   2.94672465   0.05301022
5312.00   2.93703604   0.05326237
5314.00   2.91325903   0.05305615
5316.00   2.94307017   0.05364348
5318.00   2.82381868   0.05277080
5320.00   2.83087039   0.05283873
5322.00   3.05813503   0.05420179
5324.00   2.87672710   0.05345643
5326.00   2.91531229   0.05390978
5328.00   2.82005119   0.05365038
5330.00   2.90751696   0.05436644
5332.00   2.88431787   0.05444196
5334.00   2.91897750   0.05472606
5336.00   3.01696968   0.05547417
5338.00   2.96792865   0.05608590
5340.00   2.98393965   0.05639638
5342.00   2.97702789   0.05660647
5344.00   2.97806478   0.05667152
5346.00   2.92908955   0.05678287
5348.00   2.98347259   0.05801351
5350.00   2.92566109   0.05790810
5352.00   3.00634146   0.05816434
5354.00   3.01987767   0.05923384
5356.00   2.99013996   0.05919701
5358.00   2.95483851   0.05847587
5360.00   3.00798750   0.05805853
5362.00   2.96903372   0.05742509
5364.00   3.06186128   0.05824685
5366.00   2.93764520   0.05732810
5368.00   2.91279149   0.05714963
5370.00   3.04661417   0.05807203
5372.00   3.02088952   0.05821529
5374.00   2.95794320   0.05887363
5376.00   3.00050449   0.05915406
5378.00   3.02512288   0.05957492
5380.00   2.96855021   0.05919776
5382.00   3.00685596   0.05946818
5384.00   2.86103678   0.05858013
5386.00   3.00999236   0.05967612
5388.00   2.95254707   0.05967281
5390.00   2.93231416   0.06024772
5392.00   2.94576216   0.06245960
5394.00   3.03222346   0.06248092
5396.00   2.98329425   0.06085605
5398.00   2.86162019   0.06075865
5400.00   2.85854244   0.06073060
5402.00   2.90942788   0.06123335
5404.00   2.99231744   0.06214252
5406.00   2.97377515   0.06208418
5408.00   2.91732955   0.06238696
5410.00   2.97449780   0.06319905
5412.00   2.88699317   0.06378612
5414.00   2.77210498   0.06400122
5416.00   2.80110526   0.06542029
5418.00   2.72172260   0.06503080
5420.00   2.87332797   0.06637201
5422.00   2.70155048   0.06502219
5424.00   2.65714264   0.06448833
5426.00   2.66282225   0.02793313
5428.00   2.73711467   0.02993482
5430.00   2.92625785   0.03306741
5432.00   2.94526434   0.03287186
5434.00   2.82571769   0.02919808
5436.00   2.74871659   0.02661181
5438.00   2.69613862   0.02499486
5440.00   2.66219640   0.02401535
5442.00   2.66025782   0.02377965
5444.00   2.68827319   0.02434006
5446.00   2.68880296   0.02508443
5448.00   2.68093276   0.02633139
5450.00   2.66519380   0.02755577
5452.00   2.62433696   0.02898412
5454.00   2.60086155   0.03026770
5456.00   2.62616110   0.03121850
5458.00   2.68060732   0.03198703
5460.00   2.70248389   0.03280896
5462.00   2.73661351   0.03433857
5464.00   2.70652819   0.03413298
5466.00   2.59459853   0.03207743
5468.00   2.50331926   0.03008295
5470.00   2.45910382   0.02874744
5472.00   2.44251037   0.02773982
5474.00   2.45891666   0.02733284
5476.00   2.52621078   0.02817018
5478.00   2.56697249   0.02750300
5480.00   2.60629964   0.02529289
5482.00   2.63943529   0.02374063
5484.00   2.66248703   0.02340700
5486.00   2.68256092   0.02363174
5488.00   2.71198297   0.02379058
5490.00   2.75021553   0.02418694
5492.00   2.77271056   0.02453556
5494.00   2.77469254   0.02488331
5496.00   2.79390287   0.02535160
5498.00   2.83844209   0.02627547
5500.00   2.88315034   0.02687529
5502.00   2.90547013   0.02627398
5504.00   2.91516924   0.02464839
5506.00   2.91783214   0.02378946
5508.00   2.89686990   0.02299879
5510.00   2.89882374   0.02271155
5512.00   2.92614293   0.02304309
5514.00   2.95257306   0.02356457
5516.00   2.96710181   0.02417530
5518.00   2.97547340   0.02490895
5520.00   2.95395660   0.02480388
5522.00   2.88975215   0.02363610
5524.00   2.85238671   0.02322629
5526.00   2.83033347   0.02325905
5528.00   2.80747128   0.02340396
5530.00   2.77519512   0.02368858
5532.00   2.74175334   0.02401507
5534.00   2.72674227   0.02375914
5536.00   2.73436189   0.02273939
5538.00   2.72253895   0.02241331
5540.00   2.70068645   0.02233954
5542.00   2.67780185   0.02257843
5544.00   2.66029716   0.02346230
5546.00   2.63748741   0.02435669
5548.00   2.58885956   0.02409865
5550.00   2.51217675   0.02283112
5552.00   2.45913911   0.02208018
5554.00   2.40521026   0.02130353
5556.00   2.37530231   0.02071376
5558.00   2.38317776   0.02033957
5560.00   2.39625931   0.02013465
5562.00   2.37657475   0.02004686
5564.00   2.33564019   0.02007910
5566.00   2.31831193   0.02043036
5568.00   2.31156754   0.02090245
5570.00   2.31021810   0.02184753
5572.00   2.32785034   0.02363318
5574.00   2.33422661   0.02504764
5576.00   2.29825616   0.02543484
5578.00   2.23417568   0.02521576
5580.00   2.22581792   0.02462199
5582.00   2.27805233   0.02305570
5584.00   2.28067040   0.02202113
5586.00   2.24188185   0.02120049
5588.00   2.20814562   0.02058913
5590.00   2.19913673   0.02032763
5592.00   2.20061636   0.02029324
5594.00   2.19519973   0.01984571
5596.00   2.19477892   0.01877007
5598.00   2.18015909   0.01855759
5600.00   2.14185691   0.01912452
5602.00   2.12198806   0.01952644
5604.00   2.13289714   0.01963810
5606.00   2.15865254   0.01959325
5608.00   2.17905450   0.01928707
5610.00   2.20240879   0.01837348
5612.00   2.22710490   0.01854493
5614.00   2.26306677   0.01977137
5616.00   2.28259468   0.02052484
5618.00   2.27705503   0.02088063
5620.00   2.26650739   0.02093524
5622.00   2.27315998   0.02050878
5624.00   2.28775620   0.01947719
5626.00   2.30784535   0.01906487
5628.00   2.34446287   0.01901025
5630.00   2.36596632   0.01897007
5632.00   2.37177157   0.01893906
5634.00   2.37348294   0.01904283
5636.00   2.37705946   0.01943929
5638.00   2.37903595   0.02006753
5640.00   2.39124870   0.02020482
5642.00   2.40700269   0.01990436
5644.00   2.43491864   0.01981789
5646.00   2.48509574   0.01987685
5648.00   2.52705693   0.01989385
5650.00   2.54243517   0.01972088
5652.00   2.54426908   0.01947357
5654.00   2.56313968   0.01960727
5656.00   2.59578371   0.01979355
5658.00   2.61606288   0.02056235
5660.00   2.63759518   0.02240014
5662.00   2.64373970   0.02335445
5664.00   2.61961865   0.02279804
5666.00   2.58599091   0.02158086
5668.00   2.59177661   0.02126334
5670.00   2.63661289   0.02134941
5672.00   2.64245367   0.02150246
5674.00   2.62585521   0.02161154
5676.00   2.60814452   0.02228133
5678.00   2.58089209   0.02361675
5680.00   2.55974317   0.02521606
5682.00   2.57647109   0.02686565
5684.00   2.63076615   0.02902114
5686.00   2.64110422   0.02922921
5688.00   2.61720896   0.02748753
5690.00   2.60909271   0.02633279
5692.00   2.62139654   0.02567502
5694.00   2.63027310   0.02515943
5696.00   2.61139774   0.02459183
5698.00   2.57157588   0.02403033
5700.00   2.57954884   0.02402329
5702.00   2.64591074   0.02518553
5704.00   2.66290259   0.02496606
5706.00   2.63587809   0.02316287
5708.00   2.60582829   0.02135905
5710.00   2.59302616   0.02061505
5712.00   2.58552980   0.02043919
5714.00   2.57191968   0.02027726
5716.00   2.54544306   0.02041513
5718.00   2.54216337   0.02058345
5720.00   2.56163383   0.02114055
5722.00   2.57859063   0.02130820
5724.00   2.58681250   0.02070099
5726.00   2.59098148   0.01971262
5728.00   2.59039927   0.01925051
5730.00   2.58871746   0.01896926
5732.00   2.57259798   0.01896854
5734.00   2.53542686   0.01949661
5736.00   2.50771952   0.01975417
5738.00   2.49417591   0.01965366
5740.00   2.48635459   0.01936796
5742.00   2.47645617   0.01895108
5744.00   2.46550202   0.01815194
5746.00   2.46567202   0.01816371
5748.00   2.47966433   0.01904420
5750.00   2.48768783   0.01947134
5752.00   2.49210501   0.01939538
5754.00   2.49194217   0.01925886
5756.00   2.48450994   0.01940563
5758.00   2.47102809   0.01969091
5760.00   2.45168495   0.01993712
5762.00   2.42425418   0.02020333
5764.00   2.39558458   0.02048543
5766.00   2.35121274   0.02071967
5768.00   2.32332301   0.02106124
5770.00   2.34159780   0.02176553
5772.00   2.38911700   0.02265134
5774.00   2.38792992   0.02252565
5776.00   2.34974170   0.02115618
5778.00   2.32609320   0.02065148
5780.00   2.29737496   0.02067336
5782.00   2.28038931   0.02076871
5784.00   2.28449607   0.02083004
5786.00   2.30070901   0.02091890
5788.00   2.31010222   0.02092695
5790.00   2.32502389   0.02095133
5792.00   2.32587266   0.02078203
5794.00   2.31523871   0.02040953
5796.00   2.30242991   0.02002260
5798.00   2.28058100   0.01959129
5800.00   2.26246595   0.01917783
5802.00   2.27918792   0.01897177
5804.00   2.33647394   0.01890593
5806.00   2.34237838   0.01897284
5808.00   2.31756926   0.01927938
5810.00   2.28633928   0.01950662
5812.00   2.23953748   0.01976066
5814.00   2.19275403   0.01987163
5816.00   2.16364264   0.01951692
5818.00   2.14082360   0.01867132
5820.00   2.15481973   0.01864067
5822.00   2.22908092   0.01932410
5824.00   2.25882721   0.01970636
5826.00   2.24145508   0.01983991
5828.00   2.22426844   0.02002269
5830.00   2.24096560   0.02052109
5832.00   2.27488852   0.02119304
5834.00   2.27523518   0.02116679
5836.00   2.24028373   0.02003371
5838.00   2.23310137   0.02011543
5840.00   2.24470687   0.02163556
5842.00   2.25896120   0.02248087
5844.00   2.26934242   0.02162010
5846.00   2.28071976   0.01989706
5848.00   2.29948878   0.01973966
5850.00   2.32883358   0.02076189
5852.00   2.34933949   0.02132289
5854.00   2.36326361   0.02206461
5856.00   2.38039351   0.02254748
5858.00   2.40691042   0.02274373
5860.00   2.43338609   0.02269284
5862.00   2.44084787   0.02225814
5864.00   2.42621326   0.02113621
5866.00   2.43831921   0.02085437
5868.00   2.47479987   0.02124962
5870.00   2.49799895   0.02147166
5872.00   2.50920701   0.02147828
5874.00   2.50963688   0.02145311
5876.00   2.49375319   0.02128172
5878.00   2.46034288   0.02054988
5880.00   2.43604755   0.02257164
5882.00   2.40373993   0.02562843
5884.00   2.38969254   0.03001761
5886.00   2.38392615   0.03637812
5888.00   2.40081859   0.04150493
5890.00   2.45942998   0.04419159
5892.00   2.55273366   0.04568974
5894.00   2.61963224   0.04583264
5896.00   2.71806502   0.04461882
5898.00   2.72790384   0.04232122
5900.00   2.62871289   0.03766295
5902.00   2.54122925   0.03264441
5904.00   2.52040362   0.02838392
5906.00   2.53061700   0.02445098
5908.00   2.54142070   0.02228041
5910.00   2.57850242   0.02322239
5912.00   2.59231138   0.02307153
5914.00   2.59716821   0.02328712
5916.00   2.59336257   0.02325983
5918.00   2.57560587   0.02272490
5920.00   2.55228877   0.02199147
5922.00   2.54483414   0.02164497
5924.00   2.54304743   0.02151792
5926.00   2.55499530   0.02141616
5928.00   2.59030557   0.02153764
5930.00   2.61376381   0.02148575
5932.00   2.62446284   0.02111156
5934.00   2.62593603   0.02071776
5936.00   2.61405015   0.02073438
5938.00   2.58263326   0.02108906
5940.00   2.58237171   0.02109619
5942.00   2.61452913   0.02095797
5944.00   2.62543941   0.02072927
5946.00   2.61394167   0.02017125
5948.00   2.59767914   0.01979316
5950.00   2.58799672   0.02022365
5952.00   2.57933688   0.02123455
5954.00   2.57372117   0.02128470
5956.00   2.56768060   0.02044097
5958.00   2.57015085   0.02017621
5960.00   2.58668995   0.02036605
5962.00   2.59878922   0.02059255
5964.00   2.59307981   0.02074272
5966.00   2.57849407   0.02086556
5968.00   2.58358812   0.02058186
5970.00   2.61845088   0.01960276
5972.00   2.61533618   0.01928616
5974.00   2.57303619   0.01953359
5976.00   2.54529357   0.01965164
5978.00   2.55500221   0.01940577
5980.00   2.57744646   0.01902386
5982.00   2.56902218   0.01880570
5984.00   2.53853774   0.01848737
5986.00   2.51712966   0.01867891
5988.00   2.48156357   0.01964827
5990.00   2.47137737   0.02004514
5992.00   2.50629711   0.01949244
5994.00   2.54910994   0.01873630
5996.00   2.54314160   0.01889942
5998.00   2.49660802   0.01981141
6000.00   2.49618244   0.01978166
6002.00   2.53511286   0.01899937
6004.00   2.55057049   0.01850356
6006.00   2.53878021   0.01803669
6008.00   2.52211308   0.01797551
6010.00   2.51520038   0.01902200
6012.00   2.50962377   0.02094787
6014.00   2.52418232   0.02112918
6016.00   2.58212209   0.01991151
6018.00   2.58986259   0.01911143
6020.00   2.54445815   0.01829178
6022.00   2.49618769   0.01771719
6024.00   2.46978116   0.01770058
6026.00   2.45189047   0.01808195
6028.00   2.45037198   0.01830111
6030.00   2.48132515   0.01862462
6032.00   2.48231030   0.01881536
6034.00   2.46380234   0.01864430
6036.00   2.44118404   0.01889265
6038.00   2.40792751   0.02008815
6040.00   2.37551427   0.02153773
6042.00   2.39809299   0.02181314
6044.00   2.49600101   0.02144177
6046.00   2.51680231   0.02065055
6048.00   2.48417091   0.01866644
6050.00   2.46097708   0.01715588
6052.00   2.45983934   0.01666852
6054.00   2.46110082   0.01666142
6056.00   2.44427276   0.01651800
6058.00   2.41300702   0.01653421
6060.00   2.39116526   0.01649285
6062.00   2.36078835   0.01641353
6064.00   2.35317874   0.01644209
6066.00   2.38216615   0.01666957
6068.00   2.41296554   0.01687288
6070.00   2.40692568   0.01680572
6072.00   2.37595320   0.01654132
6074.00   2.36975884   0.01641564
6076.00   2.38230324   0.01634595
6078.00   2.38122296   0.01624839
6080.00   2.36629534   0.01599183
6082.00   2.35113406   0.01592277
6084.00   2.34504676   0.01631836
6086.00   2.34330487   0.01701466
6088.00   2.33264136   0.01757962
6090.00   2.30670691   0.01862283
6092.00   2.30138898   0.01863041
6094.00   2.31484056   0.01723317
6096.00   2.32900047   0.01629919
6098.00   2.33789277   0.01688422
6100.00   2.34540820   0.01815815
6102.00   2.35087276   0.01892032
6104.00   2.35111547   0.02003033
6106.00   2.35827160   0.02006342
6108.00   2.36670184   0.01883169
6110.00   2.38205266   0.01803520
6112.00   2.41371012   0.01825997
6114.00   2.44618106   0.01878801
6116.00   2.44631124   0.01873191
6118.00   2.41623068   0.01836920
6120.00   2.40774107   0.01805046
6122.00   2.41080904   0.01747861
6124.00   2.40751028   0.01719143
6126.00   2.39222288   0.01726759
6128.00   2.37858510   0.01751072
6130.00   2.38283205   0.01781241
6132.00   2.40113544   0.01832200
6134.00   2.40862131   0.01821145
6136.00   2.41909242   0.01745318
6138.00   2.41481447   0.01693445
6140.00   2.38631940   0.01651855
6142.00   2.36191154   0.01624846
6144.00   2.36363959   0.01619807
6146.00   2.38113070   0.01633483
6148.00   2.39542770   0.01670201
6150.00   2.42895794   0.01749148
6152.00   2.42998242   0.01796463
6154.00   2.39586806   0.01840916
6156.00   2.36351395   0.01855974
6158.00   2.34858656   0.01816501
6160.00   2.34093595   0.01742068
6162.00   2.33428216   0.01714547
6164.00   2.33487344   0.01729042
6166.00   2.32927918   0.01706663
6168.00   2.32399654   0.01662854
6170.00   2.31202579   0.01616328
6172.00   2.28791499   0.01563048
6174.00   2.25949407   0.01511464
6176.00   2.24231386   0.01495301
6178.00   2.22346735   0.01507584
6180.00   2.23271132   0.01527721
6182.00   2.28609991   0.01587301
6184.00   2.31009221   0.01610014
6186.00   2.29093432   0.01577181
6188.00   2.26041746   0.01532239
6190.00   2.25060129   0.01528267
6192.00   2.24739122   0.01545933
6194.00   2.25364304   0.01567419
6196.00   2.28015637   0.01624696
6198.00   2.29096365   0.01635344
6200.00   2.28009224   0.01578468
6202.00   2.27163911   0.01525234
6204.00   2.28800225   0.01546500
6206.00   2.32098794   0.01613753
6208.00   2.32646227   0.01623626
6210.00   2.30920553   0.01603883
6212.00   2.30175281   0.01579883
6214.00   2.29206181   0.01517101
6216.00   2.29321003   0.01486572
6218.00   2.31871009   0.01546890
6220.00   2.35861039   0.01652324
6222.00   2.37072086   0.01676642
6224.00   2.36081481   0.01639636
6226.00   2.36006546   0.01636231
6228.00   2.35643697   0.01654758
6230.00   2.35893726   0.01655189
6232.00   2.37757802   0.01618506
6234.00   2.39890218   0.01565097
6236.00   2.38780046   0.01537741
6238.00   2.34432840   0.01519031
6240.00   2.32259893   0.01517062
6242.00   2.30268312   0.01545327
6244.00   2.29450917   0.01558054
6246.00   2.30148005   0.01543215
6248.00   2.31701398   0.01524669
6250.00   2.33542037   0.01535257
6252.00   2.36767817   0.01571911
6254.00   2.36368346   0.01571358
6256.00   2.32290006   0.01525743
6258.00   2.29531908   0.01519835
6260.00   2.28103685   0.01577520
6262.00   2.26806021   0.01624626
6264.00   2.24868608   0.01593337
6266.00   2.22618556   0.01503701
6268.00   2.20443320   0.01471750
6270.00   2.17769122   0.01475455
6272.00   2.16009068   0.01468300
6274.00   2.15419793   0.01459058
6276.00   2.14702916   0.01448102
6278.00   2.12752914   0.01432189
6280.00   2.10246634   0.01413301
6282.00   2.10152292   0.01407193
6284.00   2.12485838   0.01410198
6286.00   2.13724494   0.01416612
6288.00   2.14988661   0.01420522
6290.00   2.15770507   0.01441425
6292.00   2.15534949   0.01488812
6294.00   2.14914250   0.01550184
6296.00   2.15726757   0.01603138
6298.00   2.18052387   0.01660446
6300.00   2.18990374   0.01705777
6302.00   2.19118404   0.01774680
6304.00   2.19280362   0.01782597
6306.00   2.20015526   0.01692798
6308.00   2.20375323   0.01560654
6310.00   2.18668199   0.01488554
6312.00   2.14779615   0.01443341
6314.00   2.12916040   0.01407878
6316.00   2.11426616   0.01393653
6318.00   2.11291599   0.01388155
6320.00   2.13172698   0.01400149
6322.00   2.15471411   0.01413242
6324.00   2.16786456   0.01407519
6326.00   2.17997456   0.01389828
6328.00   2.16764522   0.01380029
6330.00   2.12454200   0.01368782
6332.00   2.09486032   0.01365020
6334.00   2.06869054   0.01372499
6336.00   2.05148983   0.01378574
6338.00   2.05222058   0.01374322
6340.00   2.06628060   0.01364366
6342.00   2.06271029   0.01359536
6344.00   2.04576230   0.01345250
6346.00   2.03681540   0.01357113
6348.00   2.03392053   0.01411668
6350.00   2.02830482   0.01440131
6352.00   2.01945281   0.01405543
6354.00   2.00639224   0.01340682
6356.00   1.97690451   0.01333565
6358.00   1.92734730   0.01367690
6360.00   1.88700998   0.01388879
6362.00   1.83503819   0.01433174
6364.00   1.80533564   0.01444227
6366.00   1.81184161   0.01397468
6368.00   1.83331645   0.01328705
6370.00   1.83563840   0.01304110
6372.00   1.82652497   0.01300624
6374.00   1.83410788   0.01311803
6376.00   1.87201333   0.01372050
6378.00   1.87391925   0.01383360
6380.00   1.82126749   0.01319386
6382.00   1.76093924   0.01244827
6384.00   1.74497485   0.01245348
6386.00   1.75753069   0.01299110
6388.00   1.74318147   0.01295724
6390.00   1.71332097   0.01253299
6392.00   1.68871593   0.01226596
6394.00   1.67256284   0.01209785
6396.00   1.64987564   0.01198414
6398.00   1.60519183   0.01193307
6400.00   1.54490769   0.01194582
6402.00   1.51708555   0.01189390
6404.00   1.51696706   0.01177707
6406.00   1.50640869   0.01173802
6408.00   1.49762130   0.01178153
6410.00   1.48188519   0.01181189
6412.00   1.45398641   0.01181791
6414.00   1.41780055   0.01179494
6416.00   1.38069642   0.01159909
6418.00   1.33058870   0.01109826
6420.00   1.29952192   0.01088744
6422.00   1.27985382   0.01080456
6424.00   1.26651859   0.01083944
6426.00   1.26255047   0.01105403
6428.00   1.26239014   0.01133738
6430.00   1.25020087   0.01144082
6432.00   1.22959387   0.01146958
6434.00   1.21194816   0.01140712
6436.00   1.19399750   0.01111648
6438.00   1.17503381   0.01100579
6440.00   1.15295124   0.01117866
6442.00   1.13202047   0.01140349
6444.00   1.11878014   0.01144497
6446.00   1.11235404   0.01140971
6448.00   1.09971547   0.01127458
6450.00   1.07467878   0.01095167
6452.00   1.06919658   0.01071688
6454.00   1.08657157   0.01051045
6456.00   1.10953557   0.01039619
6458.00   1.12427461   0.01047509
6460.00   1.13662899   0.01071179
6462.00   1.16272318   0.01082137
6464.00   1.19987845   0.01081347
6466.00   1.23913682   0.01097250
6468.00   1.28691995   0.01137571
6470.00   1.33186316   0.01165414
6472.00   1.36374450   0.01159770
6474.00   1.39022875   0.01135714
6476.00   1.44106448   0.01132569
6478.00   1.51526749   0.01120492
6480.00   1.58033991   0.01152607
6482.00   1.64087534   0.01238461
6484.00   1.70934319   0.01300721
6486.00   1.78248346   0.01324980
6488.00   1.86716104   0.01329891
6490.00   1.99031591   0.01324156
6492.00   2.15364242   0.01281585
6494.00   2.30772996   0.01295181
6496.00   2.47692561   0.01337376
6498.00   2.63447404   0.01401643
6500.00   2.77098894   0.01498148
6502.00   2.90506864   0.01597979
6504.00   3.06094146   0.01665242
6506.00   3.23083854   0.01717113
6508.00   3.40067768   0.01761972
6510.00   3.58112645   0.01804978
6512.00   3.75339437   0.01825900
6514.00   3.91663885   0.01826710
6516.00   4.07738924   0.01809822
6518.00   4.24254560   0.01765252
6520.00   4.41074467   0.01686921
6522.00   4.55781412   0.01684193
6524.00   4.69356441   0.01757475
6526.00   4.81250286   0.01790226
6528.00   4.91613054   0.01793510
6530.00   5.00339651   0.01799513
6532.00   5.07247496   0.01815192
6534.00   5.12460279   0.01837848
6536.00   5.16749907   0.01914231
6538.00   5.18236876   0.02084559
6540.00   5.22262907   0.02139682
6542.00   5.28455162   0.02125434
6544.00   5.33994055   0.02086102
6546.00   5.38219881   0.02014833
6548.00   5.41559649   0.01924374
6550.00   5.43534279   0.01901569
6552.00   5.44179440   0.01929073
6554.00   5.44053125   0.01957051
6556.00   5.42304850   0.02021603
6558.00   5.40876818   0.02059712
6560.00   5.40489769   0.02047353
6562.00   5.39874697   0.02029895
6564.00   5.36881495   0.02077022
6566.00   5.30821705   0.02175545
6568.00   5.30081654   0.02227996
6570.00   5.34142447   0.02304917
6572.00   5.36610985   0.02291736
6574.00   5.38239384   0.02138727
6576.00   5.38626719   0.01957054
6578.00   5.36298561   0.01888418
6580.00   5.31391191   0.01888178
6582.00   5.29225969   0.01874634
6584.00   5.28679180   0.01892715
6586.00   5.27747536   0.01887502
6588.00   5.27750397   0.01841501
6590.00   5.26354885   0.01819633
6592.00   5.21371222   0.01877613
6594.00   5.13972139   0.01981312
6596.00   5.09434605   0.02013295
6598.00   5.06151009   0.02022128
6600.00   5.03358603   0.01991178
6602.00   5.02425003   0.01880732
6604.00   5.00259924   0.01796704
6606.00   4.95026302   0.01798244
6608.00   4.88457727   0.01840147
6610.00   4.84722090   0.01842420
6612.00   4.83345985   0.01838079
6614.00   4.80434036   0.01815306
6616.00   4.77301359   0.01757027
6618.00   4.73528242   0.01718218
6620.00   4.68713617   0.01713387
6622.00   4.63527107   0.01724411
6624.00   4.59090948   0.01733221
6626.00   4.54433966   0.01754326
6628.00   4.52098274   0.01751789
6630.00   4.52234983   0.01710547
6632.00   4.52038431   0.01708340
6634.00   4.52652884   0.01769782
6636.00   4.52066183   0.01830355
6638.00   4.47102785   0.01827739
6640.00   4.38379860   0.01785737
6642.00   4.32328320   0.01742130
6644.00   4.26094866   0.01657743
6646.00   4.22023916   0.01610548
6648.00   4.21021557   0.01604260
6650.00   4.20075846   0.01607924
6652.00   4.16899204   0.01602618
6654.00   4.12596035   0.01597877
6656.00   4.09644842   0.01596995
6658.00   4.08685684   0.01606565
6660.00   4.04853916   0.01601433
6662.00   3.97651196   0.01567853
6664.00   3.91312456   0.01556023
6666.00   3.87722206   0.01600147
6668.00   3.85537863   0.01669015
6670.00   3.83117557   0.01685797
6672.00   3.82309294   0.01674149
6674.00   3.78812742   0.01653985
6676.00   3.73091865   0.01607218
6678.00   3.67390442   0.01564882
6680.00   3.61896348   0.01526332
6682.00   3.56558466   0.01497563
6684.00   3.52221680   0.01508621
6686.00   3.49086261   0.01563996
6688.00   3.44767308   0.01588519
6690.00   3.38926530   0.01605321
6692.00   3.34717584   0.01616270
6694.00   3.32924390   0.01628508
6696.00   3.31701612   0.01627772
6698.00   3.29041362   0.01586470
6700.00   3.25725937   0.01494231
6702.00   3.22329807   0.01486265
6704.00   3.18279028   0.01569564
6706.00   3.14771271   0.01590861
6708.00   3.12177587   0.01547586
6710.00   3.09265161   0.01496524
6712.00   3.04932594   0.01476291
6714.00   2.99630809   0.01468561
6716.00   2.95169210   0.01485129
6718.00   2.90569401   0.01560595
6720.00   2.87005591   0.01567249
6722.00   2.84163260   0.01509680
6724.00   2.82191873   0.01445990
6726.00   2.81599760   0.01401272
6728.00   2.81926775   0.01362518
6730.00   2.80608559   0.01343481
6732.00   2.78346491   0.01338780
6734.00   2.75883317   0.01353503
6736.00   2.72896528   0.01409000
6738.00   2.69686723   0.01440286
6740.00   2.66146064   0.01429784
6742.00   2.62486243   0.01397572
6744.00   2.59429216   0.01365359
6746.00   2.56630564   0.01301669
6748.00   2.54366446   0.01299246
6750.00   2.52743292   0.01363809
6752.00   2.51208305   0.01396849
6754.00   2.49857736   0.01390031
6756.00   2.48521805   0.01366827
6758.00   2.46784544   0.01339798
6760.00   2.44661331   0.01288224
6762.00   2.43126750   0.01301881
6764.00   2.41739964   0.01399412
6766.00   2.40895438   0.01431156
6768.00   2.41169453   0.01395430
6770.00   2.41167521   0.01340983
6772.00   2.39416075   0.01298520
6774.00   2.36419201   0.01249263
6776.00   2.34825611   0.01249798
6778.00   2.33816957   0.01305210
6780.00   2.33169484   0.01338792
6782.00   2.33108616   0.01372314
6784.00   2.33185744   0.01391293
6786.00   2.33388758   0.01379476
6788.00   2.33673477   0.01347692
6790.00   2.32551241   0.01348898
6792.00   2.29441977   0.01392748
6794.00   2.28036094   0.01384551
6796.00   2.27720642   0.01330067
6798.00   2.27461410   0.01279385
6800.00   2.27007675   0.01247329
6802.00   2.26541901   0.01224584
6804.00   2.26003218   0.01213795
6806.00   2.25420117   0.01217051
6808.00   2.24771357   0.01224318
6810.00   2.23993015   0.01249252
6812.00   2.23286033   0.01260914
6814.00   2.22606826   0.01251514
6816.00   2.22040129   0.01235478
6818.00   2.21818233   0.01228293
6820.00   2.21992588   0.01214135
6822.00   2.21760082   0.01244942
6824.00   2.21966124   0.01336311
6826.00   2.20828009   0.01382206
6828.00   2.17343163   0.01386733
6830.00   2.14057636   0.01371509
6832.00   2.13625550   0.01344905
6834.00   2.15105867   0.01298002
6836.00   2.15632510   0.01271580
6838.00   2.15777755   0.01242968
6840.00   2.16734695   0.01243416
6842.00   2.19408274   0.01293255
6844.00   2.21075177   0.01327923
6846.00   2.19678783   0.01300963
6848.00   2.16347885   0.01236671
6850.00   2.14598942   0.01231832
6852.00   2.12732458   0.01258040
6854.00   2.12299871   0.01299411
6856.00   2.14102626   0.01389490
6858.00   2.14984035   0.01442591
6860.00   2.13309669   0.01408613
6862.00   2.10602760   0.01340905
6864.00   2.10077238   0.01393746
6866.00   2.11189151   0.01574386
6868.00   2.11541200   0.01614874
6870.00   2.12400889   0.01576163
6872.00   2.12222552   0.01532304
6874.00   2.10516238   0.01476023
6876.00   2.08047080   0.01423952
6878.00   2.05703878   0.01446570
6880.00   2.02382636   0.01555404
6882.00   2.01789355   0.01544604
6884.00   2.03843021   0.01427388
6886.00   2.05332279   0.01348593
6888.00   2.06866622   0.01319633
6890.00   2.07637143   0.01309468
6892.00   2.06074643   0.01297093
6894.00   2.02449250   0.01290336
6896.00   2.00392962   0.01304462
6898.00   1.98269379   0.01362351
6900.00   1.97474670   0.01374422
6902.00   1.98513901   0.01337691
6904.00   1.99652112   0.01294507
6906.00   1.99634159   0.01267512
6908.00   1.99082911   0.01245044
6910.00   1.99139678   0.01265691
6912.00   1.99942207   0.01361638
6914.00   1.99754715   0.01377808
6916.00   1.98540092   0.01325863
6918.00   1.97466719   0.01274778
6920.00   1.97398221   0.01251406
6922.00   1.97550809   0.01240598
6924.00   1.95494092   0.01247050
6926.00   1.90222085   0.01292056
6928.00   1.88337076   0.01294489
6930.00   1.87997246   0.01257931
6932.00   1.88872182   0.01239460
6934.00   1.91617000   0.01260359
6936.00   1.95102191   0.01292028
6938.00   1.96657860   0.01293654
6940.00   1.97396433   0.01274590
6942.00   1.97043085   0.01266701
6944.00   1.94421208   0.01262229
6946.00   1.93241549   0.01255084
6948.00   1.94113469   0.01245295
6950.00   1.95446372   0.01233237
6952.00   1.95602334   0.01215457
6954.00   1.95050848   0.01186869
6956.00   1.95516336   0.01192966
6958.00   1.96406937   0.01242127
6960.00   1.97825754   0.01261456
6962.00   2.00297379   0.01251739
6964.00   2.02572894   0.01237291
6966.00   2.03634524   0.01231547
6968.00   2.03957844   0.01227260
6970.00   2.04150677   0.01240365
6972.00   2.03811741   0.01282407
6974.00   2.03569221   0.01296699
6976.00   2.03105831   0.01289388
6978.00   2.02874875   0.01278330
6980.00   2.03183103   0.01271497
6982.00   2.03805304   0.01263718
6984.00   2.04142785   0.01249441
6986.00   2.04668474   0.01222697
6988.00   2.04516244   0.01209521
6990.00   2.03418899   0.01205957
6992.00   2.02791619   0.01203094
6994.00   2.03101063   0.01196635
6996.00   2.03818989   0.01192010
6998.00   2.04306269   0.01199683
7000.00   2.05481577   0.01219092
7002.00   2.04504800   0.01234639
7004.00   2.00764203   0.01257832
7006.00   1.98563588   0.01268958
7008.00   1.98365390   0.01265165
7010.00   1.99084163   0.01253434
7012.00   1.99968350   0.01235388
7014.00   2.01502895   0.01195929
7016.00   2.02636337   0.01222681
7018.00   2.04012752   0.01332579
7020.00   2.04692864   0.01376906
7022.00   2.04828691   0.01358461
7024.00   2.04332232   0.01322440
7026.00   2.02799320   0.01299184
7028.00   2.00244641   0.01273963
7030.00   1.99295139   0.01250382
7032.00   1.99711061   0.01216030
7034.00   1.99432564   0.01206910
7036.00   1.98338079   0.01222818
7038.00   1.97776115   0.01246917
7040.00   1.98567617   0.01276609
7042.00   2.00196815   0.01311431
7044.00   2.01453757   0.01319843
7046.00   2.03795147   0.01300246
7048.00   2.03793907   0.01297260
7050.00   2.01339507   0.01300931
7052.00   1.99255753   0.01305276
7054.00   1.98201454   0.01314010
7056.00   1.97698593   0.01320766
7058.00   1.98064685   0.01300988
7060.00   2.00255752   0.01239308
7062.00   2.00015020   0.01229003
7064.00   1.97610807   0.01268398
7066.00   1.95975566   0.01283374
7068.00   1.95723403   0.01258030
7070.00   1.95727277   0.01222164
7072.00   1.94693387   0.01213347
7074.00   1.92879355   0.01221670
7076.00   1.91829932   0.01219038
7078.00   1.91397572   0.01196947
7080.00   1.90549123   0.01207931
7082.00   1.88684356   0.01273871
7084.00   1.87341213   0.01330578
7086.00   1.88157558   0.01321722
7088.00   1.90598571   0.01268005
7090.00   1.92242825   0.01236510
7092.00   1.94282746   0.01194188
7094.00   1.95489967   0.01175122
7096.00   1.95741355   0.01176704
7098.00   1.95892382   0.01192407
7100.00   1.96636581   0.01228654
7102.00   1.97576356   0.01279232
7104.00   1.97025919   0.01277963
7106.00   1.95007288   0.01216974
7108.00   1.93401480   0.01199276
7110.00   1.91386437   0.01212568
7112.00   1.89852834   0.01221550
7114.00   1.89256310   0.01213834
7116.00   1.89166796   0.01199608
7118.00   1.88736129   0.01190358
7120.00   1.88287354   0.01180493
7122.00   1.87797165   0.01174973
7124.00   1.86454713   0.01157970
7126.00   1.86571109   0.01170199
7128.00   1.89403641   0.01239255
7130.00   1.92834115   0.01311733
7132.00   1.93363237   0.01307729
7134.00   1.91852272   0.01236614
7136.00   1.91094244   0.01220166
7138.00   1.89830673   0.01228166
7140.00   1.89204276   0.01239880
7142.00   1.89396286   0.01262294
7144.00   1.89838934   0.01283298
7146.00   1.90112996   0.01285865
7148.00   1.90528560   0.01274701
7150.00   1.90002966   0.01277806
7152.00   1.87867200   0.01302161
7154.00   1.87331128   0.01296906
7156.00   1.88467717   0.01250139
7158.00   1.89832783   0.01208048
7160.00   1.90608370   0.01208194
7162.00   1.91218770   0.01232748
7164.00   1.91591883   0.01237436
7166.00   1.91654789   0.01236922
7168.00   1.91727793   0.01233632
7170.00   1.91824996   0.01214823
7172.00   1.91708148   0.01211970
7174.00   1.91138554   0.01247306
7176.00   1.90355301   0.01298614
7178.00   1.90177357   0.01310442
7180.00   1.89798272   0.01291163
7182.00   1.90997684   0.01286688
7184.00   1.94288015   0.01279180
7186.00   1.96766675   0.01280327
7188.00   1.98322153   0.01287701
7190.00   1.98856866   0.01306349
7192.00   1.96888387   0.01355809
7194.00   1.91587543   0.01454941
7196.00   1.89521658   0.01465695
7198.00   1.88964558   0.01407319
7200.00   1.88996935   0.01353722
7202.00   1.89966595   0.01297227
7204.00   1.91256976   0.01245902
7206.00   1.92060363   0.01226618
7208.00   1.92903423   0.01235375
7210.00   1.92485619   0.01229744
7212.00   1.89701080   0.01223487
7214.00   1.89285088   0.01216614
7216.00   1.91624415   0.01198585
7218.00   1.94210851   0.01193867
7220.00   1.95630324   0.01230582
7222.00   1.96659720   0.01295314
7224.00   1.95367992   0.01306120
7226.00   1.89812970   0.01262464
7228.00   1.88424432   0.01260698
7230.00   1.90690458   0.01277937
7232.00   1.93075001   0.01317007
7234.00   1.94319594   0.01385747
7236.00   1.95140874   0.01471655
7238.00   1.94822776   0.01535114
7240.00   1.93314123   0.01617178
7242.00   1.91663098   0.01633307
7244.00   1.88459468   0.01596617
7246.00   1.86732912   0.01543531
7248.00   1.87783372   0.01470490
7250.00   1.89958596   0.01383375
7252.00   1.90465915   0.01324394
7254.00   1.90660405   0.01273527
7256.00   1.89378810   0.01258985
7258.00   1.85505950   0.01299376
7260.00   1.83329153   0.01319360
7262.00   1.83314812   0.01310764
7264.00   1.84315443   0.01295351
7266.00   1.85484254   0.01286719
7268.00   1.87313497   0.01265700
7270.00   1.88947022   0.01318128
7272.00   1.91171193   0.01462330
7274.00   1.92418754   0.01534250
7276.00   1.92668653   0.01555997
7278.00   1.92412519   0.01543859
7280.00   1.91893983   0.01485397
7282.00   1.90952611   0.01371322
7284.00   1.90285254   0.01349128
7286.00   1.88865757   0.01398796
7288.00   1.89231753   0.01436007
7290.00   1.91951084   0.01495547
7292.00   1.94284105   0.01532340
7294.00   1.94810367   0.01518347
7296.00   1.94387090   0.01472244
7298.00   1.93869531   0.01441197
7300.00   1.91974139   0.01405106
7302.00   1.91974521   0.01374365
7304.00   1.93471491   0.01339405
7306.00   1.95093215   0.01318989
7308.00   1.96892369   0.01320510
7310.00   1.98567927   0.01337266
7312.00   1.98388088   0.01360850
7314.00   1.96381664   0.01404157
7316.00   1.95079935   0.01425442
7318.00   1.93063104   0.01444876
7320.00   1.92198908   0.01442845
7322.00   1.93309867   0.01401571
7324.00   1.94834590   0.01352796
7326.00   1.94549942   0.01350884
7328.00   1.93062401   0.01380375
7330.00   1.92176175   0.01404880
7332.00   1.91192853   0.01443738
7334.00   1.90492213   0.01471735
7336.00   1.90089881   0.01472499
7338.00   1.89865100   0.01489401
7340.00   1.89714265   0.01578515
7342.00   1.89667714   0.01721237
7344.00   1.89931536   0.01727464
7346.00   1.90588844   0.01627296
7348.00   1.91157937   0.01531900
7350.00   1.91746461   0.01381173
7352.00   1.92313802   0.01253670
7354.00   1.92865777   0.01230129
7356.00   1.93393815   0.01277877
7358.00   1.93610930   0.01312590
7360.00   1.93698061   0.01379364
7362.00   1.93390095   0.01420621
7364.00   1.92772579   0.01446860
7366.00   1.91802454   0.01473695
7368.00   1.90391743   0.01515975
7370.00   1.88650763   0.01555479
7372.00   1.86883044   0.01540599
7374.00   1.83907449   0.01454065
7376.00   1.83744836   0.01429446
7378.00   1.86541152   0.01448543
7380.00   1.88451052   0.01453633
7382.00   1.89048409   0.01435063
7384.00   1.88926327   0.01407373
7386.00   1.87966788   0.01379465
7388.00   1.85449779   0.01332216
7390.00   1.85339892   0.01344112
7392.00   1.87434137   0.01432265
7394.00   1.88611031   0.01467220
7396.00   1.88714719   0.01428042
7398.00   1.88614476   0.01387417
7400.00   1.88961792   0.01424484
7402.00   1.89507616   0.01512101
7404.00   1.89844465   0.01545967
7406.00   1.90290105   0.01578567
7408.00   1.90267968   0.01559416
7410.00   1.89430857   0.01467027
7412.00   1.88846350   0.01362495
7414.00   1.89344025   0.01287455
7416.00   1.90500331   0.01223077
7418.00   1.91010034   0.01206531
7420.00   1.91715372   0.01259587
7422.00   1.91338682   0.01276674
7424.00   1.89197659   0.01278579
7426.00   1.87892795   0.01280161
7428.00   1.88846874   0.01284244
7430.00   1.90823781   0.01289787
7432.00   1.91074967   0.01305229
7434.00   1.90378368   0.01349490
7436.00   1.89572775   0.01342888
7438.00   1.87544739   0.01278587
7440.00   1.86706495   0.01239363
7442.00   1.87903631   0.01247210
7444.00   1.89905107   0.01276771
7446.00   1.90916431   0.01306720
7448.00   1.91661274   0.01359520
7450.00   1.92089868   0.01365420
7452.00   1.92614579   0.01334338
7454.00   1.92061925   0.01302483
7456.00   1.89509523   0.01249922
7458.00   1.87001896   0.01212362
7460.00   1.87192535   0.01252656
7462.00   1.89468443   0.01356156
7464.00   1.89611614   0.01391754
7466.00   1.88684642   0.01408576
7468.00   1.87650681   0.01396335
7470.00   1.85948431   0.01329690
7472.00   1.84553611   0.01266548
7474.00   1.84366250   0.01261943
7476.00   1.84976888   0.01292397
7478.00   1.85118771   0.01303168
7480.00   1.84923673   0.01317923
7482.00   1.85372019   0.01320799
7484.00   1.87094963   0.01308106
7486.00   1.87899554   0.01298701
7488.00   1.86388135   0.01301136
7490.00   1.83658195   0.01309786
7492.00   1.82649004   0.01319863
7494.00   1.82103288   0.01349916
7496.00   1.82664597   0.01342681
7498.00   1.85497785   0.01289398
7500.00   1.86873269   0.01258632
7502.00   1.85709536   0.01280576
7504.00   1.83269024   0.01317873
7506.00   1.80938327   0.01312030
7508.00   1.77291012   0.01274875
7510.00   1.76191700   0.01253727
7512.00   1.77138901   0.01218213
7514.00   1.78123498   0.01214796
7516.00   1.79541862   0.01253023
7518.00   1.80732620   0.01309054
7520.00   1.80335331   0.01367329
7522.00   1.78655541   0.01448516
7524.00   1.77516723   0.01450591
7526.00   1.75732005   0.01365179
7528.00   1.75144446   0.01319857
7530.00   1.76132250   0.01314486
7532.00   1.77288425   0.01318770
7534.00   1.77348495   0.01318561
7536.00   1.76804233   0.01322403
7538.00   1.77725971   0.01300306
7540.00   1.80328536   0.01230442
7542.00   1.81671667   0.01211234
7544.00   1.81986606   0.01236867
7546.00   1.82253313   0.01273216
7548.00   1.82959080   0.01312564
7550.00   1.83795655   0.01356606
7552.00   1.84292436   0.01368653
7554.00   1.85404837   0.01345378
7556.00   1.84494472   0.01345076
7558.00   1.81417406   0.01364877
7560.00   1.78568196   0.01368242
7562.00   1.76358485   0.01336989
7564.00   1.74551678   0.01291319
7566.00   1.73829067   0.01275315
7568.00   1.74506700   0.01276299
7570.00   1.74239945   0.01280927
7572.00   1.73108482   0.01306622
7574.00   1.72941756   0.01314487
7576.00   1.74351430   0.01294801
7578.00   1.76145327   0.01266623
7580.00   1.76779306   0.01252728
7582.00   1.76770520   0.01241316
7584.00   1.76858675   0.01247726
7586.00   1.76731145   0.01274683
7588.00   1.76622200   0.01298108
7590.00   1.76811016   0.01292919
7592.00   1.76622081   0.01321060
7594.00   1.75507534   0.01427201
7596.00   1.73776591   0.01572815
7598.00   1.70771778   0.01789021
7600.00   1.63316989   0.02054799
7602.00   1.62213957   0.02317231
7604.00   1.68999946   0.02685092
7606.00   1.74752343   0.02902797
7608.00   1.73595917   0.02844961
7610.00   1.68994772   0.02599708
7612.00   1.69832778   0.02416503
7614.00   1.75047231   0.02149510
7616.00   1.77765799   0.01953988
7618.00   1.79695284   0.01781023
7620.00   1.81138754   0.01694256
7622.00   1.82677829   0.01764357
7624.00   1.83548594   0.01913161
7626.00   1.81154394   0.01957958
7628.00   1.73893583   0.01955839
7630.00   1.71602845   0.01968796
7632.00   1.73065710   0.01985535
7634.00   1.73302472   0.01985397
7636.00   1.71160161   0.01965743
7638.00   1.68563914   0.01930116
7640.00   1.67690969   0.01877773
7642.00   1.67642653   0.01799241
7644.00   1.68479371   0.01734989
7646.00   1.71349800   0.01653595
7648.00   1.72749829   0.01611933
7650.00   1.72021174   0.01630253
7652.00   1.71223867   0.01660755
7654.00   1.72450328   0.01661294
7656.00   1.75081921   0.01652830
7658.00   1.75948393   0.01618860
7660.00   1.75928962   0.01539652
7662.00   1.75549173   0.01487519
7664.00   1.74456024   0.01446041
7666.00   1.73279631   0.01429650
7668.00   1.72119653   0.01469226
7670.00   1.70918989   0.01545965
7672.00   1.72005379   0.01521744
7674.00   1.76392961   0.01377517
7676.00   1.78086495   0.01320571
7678.00   1.78156435   0.01333977
7680.00   1.77708161   0.01343408
7682.00   1.77015650   0.01311871
7684.00   1.75927067   0.01270921
7686.00   1.74732172   0.01293646
7688.00   1.73004782   0.01403090
7690.00   1.71893859   0.01410819
7692.00   1.71700370   0.01339061
7694.00   1.70618486   0.01285224
7696.00   1.68092012   0.01270064
7698.00   1.64938545   0.01272223
7700.00   1.62319517   0.01279299
7702.00   1.60098755   0.01294898
7704.00   1.56702697   0.01324357
7706.00   1.50898850   0.01369704
7708.00   1.47794962   0.01416251
7710.00   1.47953296   0.01474082
7712.00   1.49545908   0.01523139
7714.00   1.51166177   0.01539334
7716.00   1.53667271   0.01532592
7718.00   1.55187702   0.01520829
7720.00   1.56353247   0.01500462
7722.00   1.57106233   0.01463109
7724.00   1.56837058   0.01393860
7726.00   1.57001400   0.01325071
7728.00   1.58985662   0.01281945
7730.00   1.62172413   0.01253925
7732.00   1.63541377   0.01256255
7734.00   1.63556063   0.01310529
7736.00   1.64082336   0.01329099
7738.00   1.63986206   0.01308960
7740.00   1.65071142   0.01312394
7742.00   1.69252169   0.01377069
7744.00   1.74765062   0.01466792
7746.00   1.74970591   0.01503892
7748.00   1.70290768   0.01511430
7750.00   1.67548764   0.01518167
7752.00   1.63700545   0.01518445
7754.00   1.61575997   0.01504982
7756.00   1.62122536   0.01466960
7758.00   1.64135146   0.01419235
7760.00   1.66031539   0.01400596
7762.00   1.69401073   0.01411483
7764.00   1.69943726   0.01387196
7766.00   1.67758727   0.01328765
7768.00   1.66439056   0.01287374
7770.00   1.66148269   0.01264967
7772.00   1.66288412   0.01257810
7774.00   1.66485906   0.01270223
7776.00   1.66618764   0.01303821
7778.00   1.68613756   0.01331422
7780.00   1.74098396   0.01368917
7782.00   1.76148045   0.01393542
7784.00   1.74025631   0.01401424
7786.00   1.71548939   0.01410070
7788.00   1.71478856   0.01431930
7790.00   1.72519600   0.01460573
7792.00   1.73754585   0.01494305
7794.00   1.77191722   0.01568181
7796.00   1.77363598   0.01569313
7798.00   1.74435389   0.01486848
7800.00   1.70957744   0.01405607
7802.00   1.67701495   0.01372594
7804.00   1.64321125   0.01363330
7806.00   1.62722874   0.01362881
7808.00   1.62835634   0.01378299
7810.00   1.62600672   0.01404040
7812.00   1.62880361   0.01457065
7814.00   1.62916708   0.01492569
7816.00   1.62393904   0.01497879
7818.00   1.61674905   0.01488248
7820.00   1.61356127   0.01482119
7822.00   1.61089468   0.01467925
7824.00   1.61365557   0.01463882
7826.00   1.61978889   0.01480076
7828.00   1.63090336   0.01471451
7830.00   1.64913094   0.01420976
7832.00   1.67032135   0.01359107
7834.00   1.68995500   0.01330508
7836.00   1.71445191   0.01320533
7838.00   1.71662402   0.01315759
7840.00   1.69389462   0.01320418
7842.00   1.68051207   0.01335181
7844.00   1.67387998   0.01352855
7846.00   1.67120111   0.01388193
7848.00   1.67266250   0.01461925
7850.00   1.67835128   0.01565716
7852.00   1.68597043   0.01611136
7854.00   1.70863688   0.01622690
7856.00   1.70698404   0.01629462
7858.00   1.67733145   0.01628194
7860.00   1.64796972   0.01613340
7862.00   1.63185084   0.01575905
7864.00   1.62195861   0.01520554
7866.00   1.62552428   0.01490782
7868.00   1.65167153   0.01462998
7870.00   1.66154122   0.01468057
7872.00   1.66539621   0.01528292
7874.00   1.66366374   0.01560037
7876.00   1.65191042   0.01532630
7878.00   1.63636684   0.01475923
7880.00   1.63774800   0.01439483
7882.00   1.65238893   0.01394727
7884.00   1.66423202   0.01380969
7886.00   1.68857932   0.01393346
7888.00   1.69564760   0.01414239
7890.00   1.67441165   0.01449823
7892.00   1.64442968   0.01486935
7894.00   1.63346863   0.01500432
7896.00   1.63357747   0.01500529
7898.00   1.62636542   0.01491512
7900.00   1.61236572   0.01461195
7902.00   1.60743940   0.01441185
7904.00   1.60769820   0.01418436
7906.00   1.61847389   0.01415928
7908.00   1.65194869   0.01465872
7910.00   1.70856977   0.01556180
7912.00   1.72777808   0.01617974
7914.00   1.72368360   0.01698475
7916.00   1.71497631   0.01723870
7918.00   1.69404697   0.01686344
7920.00   1.67125642   0.01641174
7922.00   1.65243995   0.01618126
7924.00   1.63451791   0.01602116
7926.00   1.62479794   0.01618339
7928.00   1.62025917   0.01705735
7930.00   1.62245512   0.01703872
7932.00   1.63967741   0.01629185
7934.00   1.64907992   0.01541162
7936.00   1.63884473   0.01440996
7938.00   1.61968327   0.01335524
7940.00   1.61369729   0.01334879
7942.00   1.61207950   0.01461555
7944.00   1.61702251   0.01491327
7946.00   1.63629925   0.01490369
7948.00   1.64621150   0.01468976
7950.00   1.63995969   0.01410313
7952.00   1.62776256   0.01340075
7954.00   1.62231457   0.01323593
7956.00   1.61615241   0.01339367
7958.00   1.62090659   0.01375317
7960.00   1.64095724   0.01449680
7962.00   1.65248728   0.01511018
7964.00   1.65783691   0.01572736
7966.00   1.65543365   0.01616866
7968.00   1.63749170   0.01615170
7970.00   1.60246634   0.01574850
7972.00   1.59160697   0.01546389
7974.00   1.59215593   0.01502658
7976.00   1.60183108   0.01475438
7978.00   1.62801588   0.01461344
7980.00   1.65409982   0.01458529
7982.00   1.67018259   0.01470818
7984.00   1.68160081   0.01496659
7986.00   1.67533886   0.01504382
7988.00   1.64288354   0.01484450
7990.00   1.62661171   0.01504123
7992.00   1.61941338   0.01580641
7994.00   1.61383462   0.01623881
7996.00   1.60595894   0.01595292
7998.00   1.59902132   0.01523849
8000.00   1.60127640   0.01460452
8002.00   1.61919451   0.01352138
8004.00   1.61999953   0.01309831
8006.00   1.60957301   0.01317125
8008.00   1.59855008   0.01341656
8010.00   1.58894205   0.01389731
8012.00   1.57862151   0.01444275
8014.00   1.56583571   0.01455911
8016.00   1.54440403   0.01417190
8018.00   1.54527700   0.01454707
8020.00   1.56537557   0.01554174
8022.00   1.58564997   0.01629888
8024.00   1.61210728   0.01700810
8026.00   1.63422716   0.01742883
8028.00   1.63245559   0.01703728
8030.00   1.60907423   0.01577680
8032.00   1.60736847   0.01536414
8034.00   1.61828363   0.01570147
8036.00   1.62656975   0.01549436
8038.00   1.63777483   0.01460392
8040.00   1.64396214   0.01366842
8042.00   1.63525772   0.01323229
8044.00   1.61527944   0.01308453
8046.00   1.60999715   0.01309557
8048.00   1.61330867   0.01333317
8050.00   1.61642015   0.01371905
8052.00   1.62851417   0.01444743
8054.00   1.63118231   0.01501102
8056.00   1.61049318   0.01523155
8058.00   1.57690561   0.01523966
8060.00   1.56424844   0.01499031
8062.00   1.56783986   0.01410902
8064.00   1.56245387   0.01384584
8066.00   1.55056977   0.01418884
8068.00   1.54515469   0.01424889
8070.00   1.55148220   0.01364885
8072.00   1.56328928   0.01279707
8074.00   1.57035637   0.01255811
8076.00   1.57895100   0.01281425
8078.00   1.57933819   0.01279488
8080.00   1.56946993   0.01271364
8082.00   1.56391513   0.01263436
8084.00   1.56172824   0.01245144
8086.00   1.56425405   0.01236760
8088.00   1.57815635   0.01268218
8090.00   1.60605884   0.01320256
8092.00   1.61452615   0.01417658
8094.00   1.61800337   0.01634303
8096.00   1.60503972   0.01688582
8098.00   1.56501913   0.01553082
8100.00   1.52479720   0.01376595
8102.00   1.50938261   0.01317441
8104.00   1.50843835   0.01319320
8106.00   1.50079358   0.01314877
8108.00   1.48027635   0.01342311
8110.00   1.48931372   0.01352722
8112.00   1.53988910   0.01356763
8114.00   1.58104372   0.01352898
8116.00   1.58519208   0.01331613
8118.00   1.56847835   0.01299406
8120.00   1.54663479   0.01307740
8122.00   1.50259089   0.01358506
8124.00   1.47464693   0.01382791
8126.00   1.43928027   0.01406447
8128.00   1.43173242   0.01411863
8130.00   1.47871089   0.01383806
8132.00   1.54817629   0.01339876
8134.00   1.56001759   0.01329207
8136.00   1.52486444   0.01329842
8138.00   1.51995182   0.01357507
8140.00   1.52727902   0.01443115
8142.00   1.53139782   0.01478419
8144.00   1.53220451   0.01436683
8146.00   1.52964771   0.01370065
8148.00   1.51782930   0.01352409
8150.00   1.49111760   0.01359996
8152.00   1.49384797   0.01365008
8154.00   1.52343547   0.01381140
8156.00   1.54537249   0.01393309
8158.00   1.56305373   0.01392058
8160.00   1.57621586   0.01401386
8162.00   1.58096945   0.01450828
8164.00   1.57848513   0.01531493
8166.00   1.57527018   0.01559964
8168.00   1.57044733   0.01559052
8170.00   1.55996633   0.01551203
8172.00   1.53617048   0.01499228
8174.00   1.51948225   0.01482607
8176.00   1.52723384   0.01566003
8178.00   1.54974532   0.01703630
8180.00   1.54731512   0.01784241
8182.00   1.52131057   0.01838923
8184.00   1.51306808   0.01906454
8186.00   1.51506698   0.01991812
8188.00   1.51924944   0.02054444
8190.00   1.52368045   0.02083171
8192.00   1.52948737   0.02089537
8194.00   1.53493261   0.02081249
8196.00   1.54352677   0.02065142
8198.00   1.54470897   0.02004075
8200.00   1.53605366   0.01861399
8202.00   1.53333592   0.01754662
8204.00   1.53841639   0.01730187
8206.00   1.54898095   0.01731640
8208.00   1.56775463   0.01677095
8210.00   1.60617149   0.01581605
8212.00   1.60168862   0.01517308
8214.00   1.55901718   0.01450188
8216.00   1.52246511   0.01419863
8218.00   1.48619759   0.01453145
8220.00   1.45582128   0.01491274
8222.00   1.44375634   0.01469243
8224.00   1.44613445   0.01405034
8226.00   1.44865775   0.01383305
8228.00   1.45938528   0.01388217
8230.00   1.46776986   0.01386057
8232.00   1.47782803   0.01384758
8234.00   1.48409331   0.01378539
8236.00   1.47860324   0.01352595
8238.00   1.46492815   0.01312302
8240.00   1.47425973   0.01335769
8242.00   1.51584017   0.01438518
8244.00   1.52427220   0.01473202
8246.00   1.49834502   0.01467083
8248.00   1.48181605   0.01448889
8250.00   1.49299264   0.01415994
8252.00   1.51862633   0.01375132
8254.00   1.54449105   0.01392792
8256.00   1.60246933   0.01483646
8258.00   1.59941554   0.01505986
8260.00   1.53144872   0.01498895
8262.00   1.48628533   0.01475659
8264.00   1.48518348   0.01423198
8266.00   1.50168610   0.01361470
8268.00   1.50944889   0.01347202
8270.00   1.52133000   0.01351525
8272.00   1.52603900   0.01411341
8274.00   1.52900910   0.01551552
8276.00   1.52454472   0.01641488
8278.00   1.51507783   0.01673253
8280.00   1.49620092   0.01693968
8282.00   1.45754838   0.01745541
8284.00   1.39580059   0.01813416
8286.00   1.36770070   0.01859813
8288.00   1.36921334   0.01919863
8290.00   1.35592771   0.01926151
8292.00   1.33059347   0.01867791
8294.00   1.30152905   0.01790753
8296.00   1.27074897   0.01729693
8298.00   1.23650002   0.01667583
8300.00   1.21683323   0.01604256
8302.00   1.20631325   0.01521787
8304.00   1.20262361   0.01477715
8306.00   1.21497929   0.01483996
8308.00   1.22122848   0.01485845
8310.00   1.20987308   0.01457890
8312.00   1.18865466   0.01415342
8314.00   1.16892493   0.01370799
8316.00   1.14222503   0.01301171
8318.00   1.12326074   0.01265434
8320.00   1.11851108   0.01260472
8322.00   1.09857166   0.01254153
8324.00   1.04988170   0.01239797
8326.00   0.98961341   0.01223034
8328.00   0.94821018   0.01201759
8330.00   0.91019392   0.01162630
8332.00   0.89124781   0.01164602
8334.00   0.89865226   0.01167022
8336.00   0.89727390   0.01234800
8338.00   0.88291091   0.01364458
8340.00   0.86539221   0.01527236
8342.00   0.85401601   0.01722789
8344.00   0.84817052   0.01979747
8346.00   0.82685292   0.02036757
8348.00   0.79482251   0.01965391
8350.00   0.75811416   0.01856032
8352.00   0.70543498   0.01620756
8354.00   0.66064292   0.01381603
8356.00   0.64980888   0.01352887
8358.00   0.66386056   0.01479522
8360.00   0.65196997   0.01467290
8362.00   0.62459683   0.01402494
8364.00   0.60302401   0.01320499
8366.00   0.58203286   0.01166298
8368.00   0.56377631   0.01032375
8370.00   0.55083233   0.01007005
8372.00   0.54143471   0.01053475
8374.00   0.52853209   0.01083783
8376.00   0.50944245   0.01143995
8378.00   0.50150639   0.01178640
8380.00   0.50778288   0.01217286
8382.00   0.50718999   0.01224867
8384.00   0.48777261   0.01172205
8386.00   0.46341053   0.01091471
8388.00   0.46445411   0.01079992
8390.00   0.48704222   0.01087617
8392.00   0.50068927   0.01174430
8394.00   0.52288669   0.01366270
8396.00   0.53002214   0.01485190
8398.00   0.51096714   0.01543377
8400.00   0.48652512   0.01555745
8402.00   0.48861310   0.01496633
8404.00   0.51370430   0.01337992
8406.00   0.50741899   0.01242390
8408.00   0.46956658   0.01148016
8410.00   0.45286024   0.01100301
8412.00   0.45658439   0.01125289
8414.00   0.47077715   0.01168605
8416.00   0.49274552   0.01177502
8418.00   0.52626193   0.01170915
8420.00   0.54306084   0.01216143
8422.00   0.55313009   0.01282794
8424.00   0.55460113   0.01381245
8426.00   0.54019713   0.01547836
8428.00   0.52855378   0.01665806
8430.00   0.52930421   0.01683680
8432.00   0.53731734   0.01640672
8434.00   0.55924833   0.01579057
8436.00   0.61194009   0.01457544
8438.00   0.63195372   0.01339691
8440.00   0.61894161   0.01156017
8442.00   0.61739552   0.01024910
8444.00   0.64965135   0.01032736
8446.00   0.69410241   0.01126567
8448.00   0.70566159   0.01217800
8450.00   0.68853807   0.01383744
8452.00   0.68995446   0.01427466
8454.00   0.69416791   0.01371171
8456.00   0.70554501   0.01345292
8458.00   0.72574842   0.01367941
8460.00   0.75202841   0.01415674
8462.00   0.78147477   0.01490803
8464.00   0.82011479   0.01623257
8466.00   0.84326011   0.01630861
8468.00   0.85355043   0.01538997
8470.00   0.86624181   0.01446486
8472.00   0.87691247   0.01324236
8474.00   0.89247972   0.01209657
8476.00   0.92681450   0.01182966
8478.00   0.98011506   0.01229211
8480.00   0.99501431   0.01241268
8482.00   0.96757168   0.01249592
8484.00   0.96924275   0.01268916
8486.00   0.99772227   0.01304818
8488.00   1.02999842   0.01336473
8490.00   1.05497491   0.01348974
8492.00   1.07852161   0.01350523
8494.00   1.09080493   0.01365589
8496.00   1.09824550   0.01370819
8498.00   1.09096360   0.01413982
8500.00   1.05679011   0.01517715
8502.00   1.03366637   0.01582551
8504.00   1.04064846   0.01572496
8506.00   1.06221044   0.01519406
8508.00   1.06890452   0.01469442
8510.00   1.07353508   0.01380298
8512.00   1.06913757   0.01333161
8514.00   1.04754066   0.01323754
8516.00   1.03730822   0.01305122
8518.00   1.04480445   0.01259227
8520.00   1.06197119   0.01209533
8522.00   1.08335555   0.01196596
8524.00   1.12314665   0.01213045
8526.00   1.12526691   0.01224932
8528.00   1.09314895   0.01231350
8530.00   1.06805062   0.01265284
8532.00   1.04484880   0.01355037
8534.00   1.02958453   0.01430107
8536.00   1.03853774   0.01410656
8538.00   1.07061875   0.01311225
8540.00   1.08073831   0.01282747
8542.00   1.08261311   0.01290753
8544.00   1.07913280   0.01297349
8546.00   1.07059038   0.01311586
8548.00   1.05531120   0.01325150
8550.00   1.02665508   0.01329707
8552.00   0.98617184   0.01329325
8554.00   0.98180789   0.01329708
8556.00   1.00809872   0.01339914
8558.00   1.02964199   0.01324242
8560.00   1.06073964   0.01272806
8562.00   1.08528733   0.01228013
8564.00   1.09317625   0.01208259
8566.00   1.09188008   0.01204718
8568.00   1.09843266   0.01226566
8570.00   1.09638476   0.01296701
8572.00   1.12047696   0.01321003
8574.00   1.17895269   0.01322072
8576.00   1.22121966   0.01317724
8578.00   1.22509646   0.01286896
8580.00   1.21918654   0.01264954
8582.00   1.25482917   0.01359579
8584.00   1.32816112   0.01580906
8586.00   1.36977303   0.01630878
8588.00   1.40310049   0.01575913
8590.00   1.42201889   0.01524022
8592.00   1.41254079   0.01463784
8594.00   1.40270853   0.01411466
8596.00   1.43377018   0.01418823
8598.00   1.49478114   0.01475845
8600.00   1.54289806   0.01507129
8602.00   1.60519087   0.01533800
8604.00   1.64086211   0.01565784
8606.00   1.63699079   0.01605461
8608.00   1.63463652   0.01643681
8610.00   1.66932070   0.01678191
8612.00   1.72614121   0.01712715
8614.00   1.76965868   0.01708529
8616.00   1.81802237   0.01651219
8618.00   1.85136330   0.01628186
8620.00   1.86821115   0.01611454
8622.00   1.88263762   0.01627721
8624.00   1.89761782   0.01703543
8626.00   1.91247165   0.01812970
8628.00   1.94911337   0.01873508
8630.00   2.01978850   0.01937619
8632.00   2.05732679   0.01938836
8634.00   2.07397389   0.01868766
8636.00   2.08711219   0.01798959
8638.00   2.10096288   0.01744967
8640.00   2.11203909   0.01698338
8642.00   2.12008429   0.01678267
8644.00   2.12961435   0.01683521
8646.00   2.12284899   0.01694610
8648.00   2.09243035   0.01726181
8650.00   2.07507706   0.01752074
8652.00   2.07385421   0.01771854
8654.00   2.08275771   0.01787137
8656.00   2.10130429   0.01794822
8658.00   2.13418269   0.01795530
8660.00   2.15554047   0.01793967
8662.00   2.16997242   0.01768631
8664.00   2.18845534   0.01780116
8666.00   2.21341085   0.01846910
8668.00   2.23695731   0.01910335
8670.00   2.25445580   0.01923988
8672.00   2.26983690   0.01910136
8674.00   2.26213145   0.01881124
8676.00   2.22341681   0.01770907
8678.00   2.20105481   0.01771445
8680.00   2.18471074   0.01910703
8682.00   2.17763925   0.02021775
8684.00   2.18700552   0.02031429
8686.00   2.20828724   0.01986617
8688.00   2.21251535   0.01909721
8690.00   2.21061826   0.01715575
8692.00   2.20016265   0.01631725
8694.00   2.16860771   0.01617362
8696.00   2.15100765   0.01651845
8698.00   2.16308165   0.01746257
8700.00   2.18992114   0.01870940
8702.00   2.20555472   0.01940733
8704.00   2.22517872   0.02014057
8706.00   2.22817922   0.02006867
8708.00   2.20946765   0.01894253
8710.00   2.20109820   0.01814141
8712.00   2.21121669   0.01805417
8714.00   2.22644544   0.01814919
8716.00   2.23093033   0.01778603
8718.00   2.23178649   0.01705958
8720.00   2.22550654   0.01673938
8722.00   2.20801973   0.01668378
8724.00   2.19482327   0.01663765
8726.00   2.19507980   0.01655880
8728.00   2.18644357   0.01658350
8730.00   2.14303041   0.01683044
8732.00   2.07198644   0.01723907
8734.00   2.01554894   0.01778766
8736.00   1.93557215   0.01902725
8738.00   1.90819895   0.01918584
8740.00   1.94834960   0.01804898
8742.00   1.98889554   0.01683276
8744.00   1.98232079   0.01641311
8746.00   1.95316267   0.01640013
8748.00   1.96029139   0.01672857
8750.00   2.00712323   0.01776966
8752.00   2.01536822   0.01828062
8754.00   1.98568320   0.01815720
8756.00   1.96678352   0.01854293
8758.00   1.98215699   0.01988174
8760.00   2.01207972   0.02165671
8762.00   2.01908183   0.02328534
8764.00   2.02109551   0.02576269
8766.00   2.00346661   0.02625095
8768.00   1.95661521   0.02508320
8770.00   1.91956174   0.02396416
8772.00   1.90214658   0.02306747
8774.00   1.89086914   0.02230231
8776.00   1.86921072   0.02219072
8778.00   1.83706510   0.02292207
8780.00   1.82612479   0.02270094
8782.00   1.83994842   0.02193391
8784.00   1.83882320   0.02100736
8786.00   1.82144034   0.01954814
8788.00   1.79529321   0.01816589
8790.00   1.76262832   0.01805190
8792.00   1.71935380   0.01905817
8794.00   1.68958771   0.01879614
8796.00   1.66693330   0.01758728
8798.00   1.64685965   0.01673502
8800.00   1.62753928   0.01609531
8802.00   1.61486483   0.01562657
8804.00   1.61482608   0.01539991
8806.00   1.62493384   0.01540698
8808.00   1.62860870   0.01537059
8810.00   1.63082981   0.01523167
8812.00   1.63387620   0.01549226
8814.00   1.63385463   0.01569358
8816.00   1.63941503   0.01666328
8818.00   1.65827715   0.01882872
8820.00   1.68371916   0.02144522
8822.00   1.69189489   0.02325111
8824.00   1.69867766   0.02497501
8826.00   1.67961574   0.02613427
8828.00   1.62345707   0.02744071
8830.00   1.58111751   0.02756314
8832.00   1.56661880   0.02567463
8834.00   1.56372070   0.02265392
8836.00   1.55476236   0.02103560
8838.00   1.54888368   0.02026342
8840.00   1.53623259   0.01925865
8842.00   1.51942945   0.01826538
8844.00   1.49968493   0.01762910
8846.00   1.47196198   0.01759992
8848.00   1.44623768   0.01774833
8850.00   1.43835640   0.01749761
8852.00   1.44605601   0.01702368
8854.00   1.43918681   0.01674033
8856.00   1.41704333   0.01629716
8858.00   1.41163731   0.01637643
8860.00   1.42733681   0.01678127
8862.00   1.44459975   0.01771528
8864.00   1.44978082   0.01967712
8866.00   1.44969618   0.02232750
8868.00   1.44059050   0.02261155
8870.00   1.41052341   0.02092028
8872.00   1.40198636   0.01967375
8874.00   1.41740286   0.01751101
8876.00   1.42796135   0.01646079
8878.00   1.41309631   0.01832770
8880.00   1.38741493   0.02150505
8882.00   1.39939988   0.02305921
8884.00   1.46135557   0.02474374
8886.00   1.47378933   0.02483665
8888.00   1.45516741   0.02311645
8890.00   1.43130136   0.02148556
8892.00   1.39816463   0.02049896
8894.00   1.36582315   0.01982069
8896.00   1.37911820   0.01959506
8898.00   1.44817877   0.02012944
8900.00   1.46153808   0.02005172
8902.00   1.43843508   0.01974745
8904.00   1.42141283   0.01929926
8906.00   1.42020440   0.01811680
8908.00   1.41549051   0.01726567
8910.00   1.38274872   0.01886042
8912.00   1.32321489   0.02231519
8914.00   1.28997147   0.02370385
8916.00   1.26701152   0.02451897
8918.00   1.25159502   0.02470470
8920.00   1.24714923   0.02418377
8922.00   1.24671900   0.02315185
8924.00   1.24066794   0.02159858
8926.00   1.23099351   0.01920994
8928.00   1.24922097   0.01786851
8930.00   1.31674862   0.01717167
8932.00   1.33192861   0.01692908
8934.00   1.29646206   0.01759261
8936.00   1.25483155   0.01819059
8938.00   1.22403777   0.01808606
8940.00   1.19546497   0.01767194
8942.00   1.20002615   0.01807051
8944.00   1.25290632   0.01926383
8946.00   1.26742387   0.01986997
8948.00   1.25822115   0.02017897
8950.00   1.24772656   0.02047415
8952.00   1.24454689   0.02080205
8954.00   1.24061131   0.02114280
8956.00   1.22296214   0.02163472
8958.00   1.18437016   0.02275361
8960.00   1.17120159   0.02244150
8962.00   1.16996336   0.02057887
8964.00   1.17921424   0.01905558
8966.00   1.20264280   0.01818082
8968.00   1.23344791   0.01771688
8970.00   1.26081157   0.01781479
8972.00   1.29597437   0.01881268
8974.00   1.30273962   0.01859611
8976.00   1.27674162   0.01692854
8978.00   1.26534820   0.01640837
8980.00   1.26792359   0.01705368
8982.00   1.27699029   0.01844912
8984.00   1.29395366   0.02069213
8986.00   1.32377779   0.02376909
8988.00   1.31178522   0.02449750
8990.00   1.25058675   0.02355019
8992.00   1.22032416   0.02278299
8994.00   1.21704853   0.02158343
8996.00   1.21639156   0.02057461
8998.00   1.20563591   0.02045039
9000.00   1.19150329   0.02089106
9002.00   1.17634499   0.02073843
9004.00   1.14790070   0.02041574
9006.00   1.14380336   0.01983407
9008.00   1.16107213   0.01866351
9010.00   1.18285239   0.01771834
9012.00   1.20481002   0.01737882
9014.00   1.22928309   0.01743505
9016.00   1.25109124   0.01775060
9018.00   1.27791929   0.01879862
9020.00   1.28892756   0.01897275
9022.00   1.29169512   0.01866668
9024.00   1.28244066   0.01816649
9026.00   1.25161731   0.01728712
9028.00   1.21552873   0.01630836
9030.00   1.20655477   0.01607061
9032.00   1.21293557   0.01639269
9034.00   1.22897553   0.01671467
9036.00   1.27376246   0.01751341
9038.00   1.29593670   0.01784563
9040.00   1.28625977   0.01745331
9042.00   1.27079117   0.01703849
9044.00   1.27597034   0.01742152
9046.00   1.29328036   0.01831694
9048.00   1.29741991   0.01889723
9050.00   1.30435884   0.01970837
9052.00   1.29007590   0.01991127
9054.00   1.23935449   0.01944542
9056.00   1.19687271   0.01878355
9058.00   1.19766796   0.01818802
9060.00   1.22502196   0.01750605
9062.00   1.23916805   0.01719508
9064.00   1.26399529   0.01710993
9066.00   1.26620245   0.01727534
9068.00   1.23756588   0.01801066
9070.00   1.21929955   0.01844240
9072.00   1.23387873   0.01801897
9074.00   1.26390517   0.01719448
9076.00   1.27206373   0.01742340
9078.00   1.27263212   0.01858976
9080.00   1.26330173   0.01919224
9082.00   1.23266387   0.01997719
9084.00   1.21414530   0.02015464
9086.00   1.21382523   0.01918242
9088.00   1.22570288   0.01778330
9090.00   1.25141788   0.01777202
9092.00   1.30707741   0.01890474
9094.00   1.31809139   0.01922416
9096.00   1.30309367   0.01943031
9098.00   1.27494895   0.01928958
9100.00   1.22000670   0.01855541
9102.00   1.16474235   0.01768779
9104.00   1.14927149   0.01739793
9106.00   1.16228521   0.01749369
9108.00   1.16297328   0.01739458
9110.00   1.17133141   0.01737916
9112.00   1.16633904   0.01716596
9114.00   1.13869691   0.01660645
9116.00   1.11630607   0.01609911
9118.00   1.12433755   0.01601306
9120.00   1.15247190   0.01619782
9122.00   1.16220117   0.01634171
9124.00   1.16353595   0.01636421
9126.00   1.16631329   0.01685593
9128.00   1.16560268   0.01811084
9130.00   1.16849649   0.01893540
9132.00   1.18539286   0.01878810
9134.00   1.20760632   0.01806760
9136.00   1.19227958   0.01750402
9138.00   1.11806035   0.01647259
9140.00   1.10844696   0.01613628
9142.00   1.15531123   0.01631062
9144.00   1.18516326   0.01668396
9146.00   1.17603981   0.01722987
9148.00   1.15046632   0.01791092
9150.00   1.13294888   0.01855700
9152.00   1.11433256   0.01960102
9154.00   1.09350061   0.01950888
9156.00   1.06690395   0.01801022
9158.00   1.04579389   0.01717123
9160.00   1.02968335   0.01752503
9162.00   1.01921809   0.01816419
9164.00   1.01880753   0.01819062
9166.00   1.03026533   0.01797838
9168.00   1.03143644   0.01758211
9170.00   1.01780713   0.01654435
9172.00   1.02467370   0.01613158
9174.00   1.05959523   0.01648454
9176.00   1.09668648   0.01704049
9178.00   1.10914266   0.01739379
9180.00   1.10495389   0.01772449
9182.00   1.14621639   0.01821371
9184.00   1.25615382   0.01899343
9186.00   1.29430497   0.01941130
9188.00   1.26496100   0.01975953
9190.00   1.22641754   0.01968480
9192.00   1.20328307   0.01871743
9194.00   1.18235648   0.01705632
9196.00   1.18210196   0.01654869
9198.00   1.19827282   0.01695825
9200.00   1.22324753   0.01716028
9202.00   1.27270246   0.01762487
9204.00   1.31014097   0.01789029
9206.00   1.31798613   0.01761518
9208.00   1.31459379   0.01720560
9210.00   1.33675361   0.01775863
9212.00   1.39255428   0.01930934
9214.00   1.39668262   0.01987446
9216.00   1.34558105   0.01989278
9218.00   1.32305574   0.01996877
9220.00   1.35316288   0.02025738
9222.00   1.39334249   0.02048132
9224.00   1.38802195   0.02024500
9226.00   1.35215461   0.01942732
9228.00   1.32814229   0.01950157
9230.00   1.29584742   0.02062329
9232.00   1.27557504   0.02089775
9234.00   1.27438498   0.02013665
9236.00   1.27291465   0.01913735
9238.00   1.24894738   0.01862075
9240.00   1.20772004   0.01826791
9242.00   1.19947302   0.01825070
9244.00   1.21318221   0.01872470
9246.00   1.23114264   0.01902433
9248.00   1.26729810   0.01916409
9250.00   1.29553974   0.01940716
9252.00   1.29483700   0.01994589
9254.00   1.27660108   0.02065456
9256.00   1.27672172   0.02107847
9258.00   1.28105378   0.02166820
9260.00   1.29491878   0.02150342
9262.00   1.33702683   0.02048347
9264.00   1.35455060   0.01940473
9266.00   1.32076216   0.01849448
9268.00   1.25991428   0.01764983
9270.00   1.22044480   0.01724449
9272.00   1.17368710   0.01717738
9274.00   1.15864587   0.01744574
9276.00   1.18629730   0.01819831
9278.00   1.19287312   0.01894845
9280.00   1.16447961   0.01986931
9282.00   1.12114692   0.02062148
9284.00   1.08055294   0.02040044
9286.00   1.02197981   0.01913008
9288.00   1.01250315   0.01871487
9290.00   1.04346371   0.01850618
9292.00   1.07825649   0.01874348
9294.00   1.12425208   0.01931846
9296.00   1.17120552   0.02035629
9298.00   1.20253384   0.02179181
9300.00   1.22474861   0.02328208
9302.00   1.24491131   0.02686089
9304.00   1.26691532   0.03175860
9306.00   1.27138638   0.03619250
9308.00   1.25461614   0.04101441
9310.00   1.23272753   0.04501406
9312.00   1.21477592   0.04786196
9314.00   1.19594145   0.05005291
9316.00   1.18549919   0.05007993
9318.00   1.19481111   0.04748047
9320.00   1.17637169   0.04551513
9322.00   1.13273859   0.04307891
9324.00   1.08640742   0.04092944
9326.00   1.04096806   0.03973724
9328.00   0.99637973   0.03906009
9330.00   0.97726393   0.03747736
9332.00   0.98478228   0.03468401
9334.00   0.98369598   0.03324200
9336.00   0.98207420   0.03271813
9338.00   0.98653740   0.03254865
9340.00   0.99845612   0.03307165
9342.00   1.01628566   0.03365513
9344.00   1.03940308   0.03257371
9346.00   1.07056570   0.02967388
9348.00   1.09839952   0.02808410
9350.00   1.13321328   0.02662836
9352.00   1.15505910   0.02620705
9354.00   1.16074336   0.02740728
9356.00   1.15853250   0.02896148
9358.00   1.15354693   0.02948225
9360.00   1.13786793   0.02946176
9362.00   1.15200996   0.03000949
9364.00   1.19239426   0.02687578
9366.00   1.22958827   0.03198926
9368.00   1.28547812   0.04308811
9370.00   1.31897330   0.05363858
9372.00   1.29520452   0.06360985
9374.00   1.23067749   0.07390234
9376.00   1.13931024   0.07349578
9378.00   0.92464107   0.06081021
9380.00   0.88298911   0.05278518
9382.00   1.03247023   0.04749484
9384.00   1.16177082   0.04231840
9386.00   1.16686380   0.03527629
9388.00   1.11604047   0.02686138
9390.00   1.10048616   0.02195625
9392.00   1.05188572   0.02298359
9394.00   1.08968055   0.02317995
9396.00   1.24130571   0.02558801
9398.00   1.33801579   0.02714252
9400.00   1.32312739   0.02725843
9402.00   1.26023424   0.02674017
9404.00   1.23644924   0.02625469
9406.00   1.21835339   0.02500414
9408.00   1.20505118   0.02518312
9410.00   1.21247947   0.02617651
9412.00   1.19521403   0.02773659
9414.00   1.13429821   0.03049883
9416.00   1.06841230   0.03290775
9418.00   1.04974806   0.03299105
9420.00   1.06529629   0.03118881
9422.00   1.05928338   0.03062482
9424.00   1.03326762   0.03037642
9426.00   1.03699124   0.03027363
9428.00   1.08352184   0.03001280
9430.00   1.13021207   0.03032901
9432.00   1.13730323   0.03170976
9434.00   1.11961842   0.03373858
9436.00   1.13515592   0.03716111
9438.00   1.19747877   0.04380753
9440.00   1.20093143   0.04573698
9442.00   1.13290524   0.04400917
9444.00   1.07787216   0.04114107
9446.00   1.08610618   0.03780944
9448.00   1.12676549   0.03342184
9450.00   1.13710213   0.03160852
9452.00   1.15609598   0.03184267
9454.00   1.12804377   0.03284404
9456.00   1.03518164   0.03578866
9458.00   0.96605361   0.03802616
9460.00   0.94620126   0.03931271
9462.00   0.95408320   0.03987947
9464.00   0.97954756   0.03867115
9466.00   1.05613399   0.03396941
9468.00   1.06712341   0.03335766
9470.00   0.99075764   0.03460372
9472.00   0.99057639   0.03785087
9474.00   1.13249612   0.04474878
9476.00   1.29548132   0.05063074
9478.00   1.30498815   0.05008712
9480.00   1.20342243   0.04433689
9482.00   1.15404356   0.04015785
9484.00   1.06489849   0.03337501
9486.00   1.05752909   0.02888304
9488.00   1.16166401   0.02784295
9490.00   1.28675675   0.02927015
9492.00   1.35944593   0.03244801
9494.00   1.41945541   0.03739191
9496.00   1.40213001   0.04060798
9498.00   1.26841259   0.04498252
9500.00   1.20976377   0.04568914
9502.00   1.21068370   0.04246746
9504.00   1.22339702   0.03817281
9506.00   1.22693658   0.03438778
9508.00   1.23249662   0.03014763
9510.00   1.23014271   0.02791901
9512.00   1.22123766   0.02775487
9514.00   1.21276963   0.02819498
9516.00   1.21974897   0.03041359
9518.00   1.19775498   0.03208977
9520.00   1.11224663   0.03270916
9522.00   1.00019777   0.03274200
9524.00   0.96467161   0.03203160
9526.00   0.98736960   0.02985720
9528.00   0.99375695   0.02884232
9530.00   1.00007951   0.02839964
9532.00   1.02364445   0.02814063
9534.00   1.09024000   0.02689981
9536.00   1.15502870   0.02673393
9538.00   1.12451184   0.03183976
9540.00   0.97923017   0.04120660
9542.00   1.00601220   0.04332526
9544.00   1.19444418   0.04097910
9546.00   1.30762541   0.03941922
9548.00   1.33110285   0.03826245
9550.00   1.33222580   0.03765645
9552.00   1.36596334   0.03882194
9554.00   1.41592205   0.04168602
9556.00   1.41141009   0.04124448
9558.00   1.33739352   0.03596695
9560.00   1.31351137   0.03548702
9562.00   1.35869217   0.04125765
9564.00   1.38112569   0.04565065
9566.00   1.31206000   0.04505842
9568.00   1.18543613   0.04157549
9570.00   1.10017633   0.03929695
9572.00   0.99161875   0.03638711
9574.00   0.95946151   0.03400951
9576.00   1.01285791   0.03208895
9578.00   1.06578219   0.03033144
9580.00   1.08584237   0.02846716
9582.00   1.09500086   0.02677599
9584.00   1.10266244   0.02628631
9586.00   1.11159396   0.02741955
9588.00   1.10000587   0.02767019
9590.00   1.06399798   0.02760474
9592.00   1.03244305   0.02773649
9594.00   0.99662781   0.02810931
9596.00   0.97416270   0.02868745
9598.00   1.01997483   0.02965563
9600.00   1.14578724   0.03137730
9602.00   1.19770062   0.03165732
9604.00   1.22340000   0.03064978
9606.00   1.22296786   0.02999671
9608.00   1.17911375   0.02978382
9610.00   1.12719345   0.02971858
9612.00   1.11676133   0.02960441
9614.00   1.13539958   0.02941896
9616.00   1.11636710   0.02995183
9618.00   1.05998790   0.03153156
9620.00   1.03226948   0.03223344
9622.00   1.03090298   0.03245694
9624.00   1.03917944   0.03202707
9626.00   1.05506849   0.03037644
9628.00   1.08215284   0.02746538
9630.00   1.05672312   0.02609988
9632.00   0.95794541   0.02584096
9634.00   0.92360884   0.02552915
9636.00   0.93336976   0.02565250
9638.00   0.96060169   0.02566485
9640.00   1.00753641   0.02508466
9642.00   1.06793976   0.02427665
9644.00   1.07271945   0.02464152
9646.00   1.00609982   0.02603055
9648.00   1.00559199   0.02710905
9650.00   1.04526103   0.02871499
9652.00   1.08662701   0.02956966
9654.00   1.12638879   0.02911523
9656.00   1.16444790   0.02814853
9658.00   1.18291509   0.02821575
9660.00   1.18981063   0.02844183
9662.00   1.18049777   0.02998975
9664.00   1.14786696   0.03362885
9666.00   1.11673260   0.03546514
9668.00   1.08130276   0.03532018
9670.00   1.05178511   0.03429149
9672.00   1.04626453   0.03303320
9674.00   1.05458355   0.03043725
9676.00   1.09265745   0.03127392
9678.00   1.19198346   0.03581385
9680.00   1.24052179   0.03791070
9682.00   1.24168730   0.03830982
9684.00   1.21891928   0.03778304
9686.00   1.17517626   0.03620333
9688.00   1.10285378   0.03322000
9690.00   1.09759247   0.03256295
9692.00   1.17195070   0.03402703
9694.00   1.18247223   0.03458398
9696.00   1.14838111   0.03478226
9698.00   1.09541273   0.03485591
9700.00   1.02417994   0.03498225
9702.00   0.93692780   0.03502696
9704.00   0.89359969   0.03421355
9706.00   0.85951620   0.03180470
9708.00   0.87923366   0.03095763
9710.00   0.96106613   0.03027184
9712.00   1.04945290   0.03139851
9714.00   1.14768147   0.03540096
9716.00   1.24165606   0.04011271
9718.00   1.25289690   0.04223494
9720.00   1.17289221   0.04349774
9722.00   1.15461957   0.04342996
9724.00   1.14707577   0.04115009
9726.00   1.16324019   0.03954750
9728.00   1.22659254   0.03927463
9730.00   1.29287565   0.03931724
9732.00   1.28789604   0.03861095
9734.00   1.22711802   0.03747191
9736.00   1.19686973   0.03646069
9738.00   1.16931343   0.03524831
9740.00   1.14579916   0.03426945
9742.00   1.12549949   0.03359082
9744.00   1.10993409   0.03302350
9746.00   1.09828591   0.03237544
9748.00   1.08862996   0.03170274
9750.00   1.10711646   0.03138192
9752.00   1.18252742   0.03175028
9754.00   1.19600666   0.03137725
9756.00   1.14240539   0.02991957
9758.00   1.08883381   0.02877385
9760.00   1.07158029   0.02906524
9762.00   1.07071114   0.03017085
9764.00   1.07552028   0.03034013
9766.00   1.10351443   0.03003815
9768.00   1.10919285   0.02979459
9770.00   1.10766697   0.02924012
9772.00   1.09024739   0.02897933
9774.00   1.03745234   0.02922231
9776.00   0.97366142   0.02980595
9778.00   0.98132032   0.03060987
9780.00   1.06995749   0.03106496
9782.00   1.08824670   0.03333186
9784.00   1.06656301   0.03698680
9786.00   1.04780138   0.04046813
9788.00   1.03616059   0.04455525
9790.00   1.02623785   0.04783640
9792.00   1.01985371   0.04764668
9794.00   1.01670754   0.04416027
9796.00   1.01456523   0.04246450
9798.00   1.00963831   0.04096957
9800.00   1.01535141   0.03976754
9802.00   1.04194009   0.03917133
9804.00   1.06533980   0.03858544
9806.00   1.05572808   0.03716727
9808.00   1.01977396   0.03500854
9810.00   1.01830912   0.03401210
9812.00   1.05100465   0.03423857
9814.00   1.05613482   0.03377954
9816.00   1.03047550   0.03239797
9818.00   1.00659168   0.03135392
9820.00   1.01294231   0.03143264
9822.00   1.03545702   0.03224787
9824.00   0.99891627   0.03415106
9826.00   0.87196410   0.03865502
9828.00   0.84276640   0.03969840
9830.00   0.90176129   0.03793182
9832.00   0.95420831   0.03600592
9834.00   0.95887297   0.03486644
9836.00   0.94797325   0.03398911
9838.00   0.97025299   0.03381454
9840.00   1.03095531   0.03454312
9842.00   1.04789722   0.03495048
9844.00   1.03369892   0.03542588
9846.00   1.02147341   0.03589390
9848.00   1.01249492   0.03641063
9850.00   1.00769234   0.03687372
9852.00   1.02160227   0.03704333
9854.00   1.05445313   0.03700428
9856.00   1.07815468   0.03682975
9858.00   1.09415710   0.03577810
9860.00   1.12395465   0.03596108
9862.00   1.18339968   0.03679053
9864.00   1.23740768   0.03912863
9866.00   1.24574196   0.04472386
9868.00   1.22652090   0.05300554
9870.00   1.17562616   0.05490052
9872.00   1.04814768   0.05248206
9874.00   0.98759812   0.05047064
9876.00   0.99687713   0.04807613
9878.00   1.01950407   0.04536377
9880.00   1.01855600   0.04233538
9882.00   1.01178002   0.03877626
9884.00   1.01900053   0.03778402
9886.00   1.04465747   0.03913867
9888.00   1.05235124   0.04074530
9890.00   1.02867854   0.04362923
9892.00   1.02910447   0.04604346
9894.00   1.10014451   0.04772606
9896.00   1.20257914   0.04882443
9898.00   1.19800961   0.04767228
9900.00   1.07960939   0.04257176
9902.00   1.04015183   0.04064316
9904.00   1.02436149   0.03904770
9906.00   1.02847576   0.04048776
9908.00   1.06945777   0.04671561
9910.00   1.11966848   0.05368685
9912.00   1.10791934   0.05608330
9914.00   1.05715024   0.05604156
9916.00   0.98798966   0.05600375
9918.00   0.82132244   0.05500933
9920.00   0.76936376   0.05366398
9922.00   0.89027524   0.05175856
9924.00   1.05604851   0.04956499
9926.00   1.11924720   0.04755414
9928.00   1.13455558   0.04525389
9930.00   1.15499389   0.04446596
9932.00   1.19325721   0.04343262
9934.00   1.15808678   0.04600595
9936.00   0.98219454   0.05307811
9938.00   0.84522766   0.05957435
9940.00   0.92796636   0.06276633
9942.00   1.16450036   0.06443669
9944.00   1.20038950   0.06674942
9946.00   1.09179318   0.07007532
9948.00   1.04272461   0.07092639
9950.00   1.01010597   0.06911101
9952.00   0.99473637   0.06709883
9954.00   1.00487268   0.06606832
9956.00   1.03441620   0.06538391
9958.00   1.05666173   0.06525766
9960.00   1.09373689   0.06475410
9962.00   1.10348284   0.06676374
9964.00   1.10907841   0.07367538
9966.00   1.07961845   0.07615713
9968.00   0.98321015   0.07066597
9970.00   0.86229825   0.06050272
9972.00   0.82447851   0.05448332
9974.00   0.84268433   0.04973587
9976.00   0.86015838   0.04653563
9978.00   0.89696658   0.04642281
9980.00   0.94509512   0.04617699
9982.00   1.02393305   0.04501965
9984.00   1.09662461   0.04444312
9986.00   1.09505534   0.04652398
9988.00   1.02294505   0.05123651
9990.00   1.02299082   0.05224372
9992.00   1.06052423   0.05058660
9994.00   1.10305250   0.04971324
9996.00   1.18069065   0.04936720
9998.00   1.23438692   0.04937376
10000.00   1.18269134   0.04911355
10002.00   1.04282117   0.04821745
10004.00   1.06380761   0.05425220
10006.00   1.23031056   0.06611203
10008.00   1.32707143   0.07392621
10010.00   1.42747712   0.08170222
10012.00   1.45237267   0.08622407
10014.00   1.30724978   0.08533099
10016.00   1.05108261   0.08054983
10018.00   1.00001633   0.07680924
10020.00   1.12044048   0.07047703
10022.00   1.15451479   0.06725521
10024.00   1.17693079   0.06777004
10026.00   1.16970599   0.06727821
10028.00   1.11251986   0.06319210
10030.00   1.02921808   0.05769481
10032.00   0.98503995   0.05691823
10034.00   0.92328453   0.06052798
10036.00   0.96613556   0.06189089
10038.00   1.14347064   0.06391793
10040.00   1.26587772   0.06409017
10042.00   1.30632937   0.06098186
10044.00   1.30632079   0.05682871
10046.00   1.28862441   0.05594187
10048.00   1.23149025   0.05708436
10050.00   1.20016158   0.05841881
10052.00   1.17022181   0.06160221
10054.00   1.15332532   0.06315897
10056.00   1.14944458   0.06294756
10058.00   1.15655887   0.06212876
10060.00   1.17988348   0.06121583
10062.00   1.22491932   0.05945605
10064.00   1.21740758   0.06155860
10066.00   1.15788686   0.06885175
10068.00   1.12163806   0.07126198
10070.00   1.07264948   0.06861897
10072.00   1.06631756   0.06633659
10074.00   1.15893269   0.06782967
10076.00   1.32155812   0.07124089
10078.00   1.40939009   0.07589564
10080.00   1.49545574   0.08550953
10082.00   1.50514734   0.08744945
10084.00   1.43616688   0.08337172
10086.00   1.34283793   0.07803320
10088.00   1.23043263   0.07249674
10090.00   1.10264122   0.06611322
10092.00   1.02557909   0.06239311
10094.00   0.97008926   0.06023816
10096.00   0.95312524   0.06052338
10098.00   1.01119518   0.06404229
10100.00   1.02793932   0.06766276
10102.00   0.94672436   0.07186488
10104.00   0.85533690   0.07554463
10106.00   0.90700680   0.07581975
10108.00   1.08711720   0.07339173
10110.00   1.17421579   0.07089674
10112.00   1.27772009   0.06380910
10114.00   1.27781522   0.06257416
10116.00   1.11621177   0.06968707
10118.00   0.92877156   0.07811751
10120.00   0.87310392   0.08309693
10122.00   0.89576650   0.08742464
10124.00   0.87291735   0.08903129
10126.00   0.83851779   0.08786484
10128.00   0.81246567   0.08677023
10130.00   0.77940738   0.08571976
10132.00   0.76827061   0.08371352
10134.00   0.81008166   0.07945145
10136.00   0.89160007   0.07304705
10138.00   0.93286890   0.07007417
10140.00   0.94473076   0.06951288
10142.00   0.98107630   0.06954277
10144.00   1.04048073   0.07052816
10146.00   1.09465158   0.07260190
10148.00   1.14358532   0.07643995
10150.00   1.18229771   0.08103552
10152.00   1.14998460   0.08260003
10154.00   1.00541091   0.08098017
10156.00   0.96414876   0.08197424
10158.00   0.99436110   0.08422608
10160.00   1.00804508   0.08660015
10162.00   0.97106975   0.08906095
10164.00   0.92792231   0.09151944
10166.00   0.95773101   0.09336590
10168.00   1.09466338   0.09479207
10170.00   1.05221212   0.09616310
10172.00   0.81866622   0.09777904
10174.00   0.68649232   0.09846731
10176.00   0.66327327   0.09763765
10178.00   0.71328080   0.09658096
10180.00   0.85939682   0.09700152
10182.00   1.14989066   0.09836796
10184.00   1.19327676   0.09929964
10186.00   0.98313832   0.09911547
10188.00   0.92725319   0.10127580
10190.00   1.02435613   0.10768779
10192.00   1.15417850   0.11239859
10194.00   1.24391770   0.11057051
10196.00   1.32932270   0.10404119
10198.00   1.40253711   0.10157825
10200.00   1.50848293   0.09960488
10202.00   1.51114392   0.10051621
10204.00   1.43847191   0.10606010
10206.00   1.29316366   0.11016998
10208.00   1.01031888   0.10969474
10210.00   0.64972651   0.10690254
10212.00   0.60679841   0.10689376
10214.00   0.91565287   0.10874233
10216.00   0.98623651   0.10943744
10218.00   0.96277279   0.11041559
10220.00   0.90571761   0.11010603
10222.00   0.80727297   0.10777629
10224.00   0.68819934   0.10416388
10226.00   0.64186245   0.10061750
10228.00   0.67829686   0.09501369
10230.00   0.60960221   0.09365834
10232.00   0.36133432   0.09690900
10234.00   0.31384182   0.09858957
10236.00   0.56100744   0.09789518
10238.00   0.91530138   0.09663509
10240.00   1.18216455   0.09658808
10242.00   1.50502241   0.09740047
10244.00   1.51468635   0.09678493
10246.00   1.15367746   0.09489289
10248.00   0.95461893   0.09341121
10250.00   0.89812791   0.09165771
10252.00   0.89638686   0.09076565
10254.00   0.93075180   0.09260122
10256.00   1.02794373   0.09671092
10258.00   0.95827246   0.09638353
10260.00   0.68936974   0.09050545
10262.00   0.56900740   0.08967685
10264.00   0.55920780   0.09352680
10266.00   0.58603084   0.09789649
10268.00   0.61468852   0.10150865
10270.00   0.66516680   0.10501507
10272.00   0.76062834   0.10548588
10274.00   0.94192666   0.09921613
10276.00   1.04608166   0.10214669
10278.00   1.14086223   0.11024595
10280.00   1.16138542   0.12111796
10282.00   1.07533681   0.13520740
10284.00   0.91572857   0.15005158
10286.00   0.74308902   0.16015844
10288.00   0.47539487   0.17140380
10290.00   0.34022215   0.17231022
10292.00   0.22686009   0.16251925
10294.00   0.25477847   0.15325320
10296.00   0.50902373   0.14520793
10298.00   0.83703619   0.13788286
10300.00   0.99255103   0.13430217
10302.00   1.05142534   0.13555180
10304.00   1.14576364   0.13117333
10306.00   1.26696277   0.12040111
10308.00   1.31567800   0.11412888
10310.00   1.28396785   0.11424821
10312.00   1.20789337   0.11614109
10314.00   1.09810519   0.11611592
10316.00   0.92936367   0.11592451
10318.00   0.90346777   0.11485256
10320.00   1.05894399   0.11142435
10322.00   1.06419563   0.11094137
10324.00   0.96196651   0.11455636
10326.00   0.79036361   0.11720193
10328.00   0.49465150   0.11529005
10330.00   0.10447139   0.11065766
10332.00   0.12348989   0.11019958
10334.00   0.53370708   0.11084568
10336.00   0.81680161   0.11492430
10338.00   1.23989344   0.12488119
10340.00   1.44290733   0.13148560
10342.00   1.19158816   0.13165727
10344.00   0.71100998   0.12854031
10346.00   0.57114512   0.12681724
10348.00   0.60074723   0.12420824
10350.00   0.65455049   0.12260854
10352.00   0.81783623   0.12159622
10354.00   0.97318351   0.12084214
10356.00   1.13498056   0.12042902
10358.00   1.26923740   0.12019818
10360.00   1.26955187   0.11932605
10362.00   1.17649126   0.11605673
10364.00   0.99978369   0.12042265
10366.00   0.59588420   0.13334294
10368.00   0.38197106   0.14070232
10370.00   0.40679801   0.14280041
10372.00   0.51195651   0.14273794
10374.00   0.56947249   0.14230210
10376.00   0.64837915   0.14057244
10378.00   0.64707726   0.13853066
10380.00   0.51045042   0.13637456
10382.00   0.51380175   0.13233565
10384.00   0.66612279   0.12518136
10386.00   0.84425980   0.11776768
10388.00   0.99206793   0.11198166
10390.00   1.14165592   0.10697041
10392.00   1.14655566   0.10692637
10394.00   0.96613353   0.11261889
10396.00   0.89688766   0.11693957
10398.00   0.87576944   0.12346543
10400.00   0.88618743   0.12709333
10402.00   0.94998407   0.12529269
10404.00   1.04100585   0.12011541
10406.00   1.01897633   0.11615600
10408.00   0.89630890   0.10876141
10410.00   0.80636537   0.10792781
10412.00   0.68302780   0.11193053
10414.00   0.59990031   0.11757725
10416.00   0.60232967   0.12610425
10418.00   0.62425297   0.13447982
10420.00   0.53139204   0.13603325
10422.00   0.31296426   0.13315390
10424.00   0.25288960   0.12844966
10426.00   0.31462994   0.11741479
10428.00   0.34818101   0.10923217
10430.00   0.34192237   0.10561851
10432.00   0.33152524   0.10403398
10434.00   0.33569303   0.10232060
10436.00   0.33333391   0.10170741
10438.00   0.41504595   0.10051899
10440.00   0.65560758   0.09843233
10442.00   0.73423451   0.09810703
10444.00   0.58450133   0.09897923
10446.00   0.46004558   0.10151388
10448.00   0.57757443   0.10715035
10450.00   0.84668565   0.11516889
10452.00   0.95258015   0.11667221
10454.00   0.99088126   0.11306303
10456.00   0.99785298   0.11037969
10458.00   0.92504072   0.10560301
10460.00   0.87516868   0.10290648
10462.00   0.91842467   0.10502577
10464.00   1.00448966   0.11008150
10466.00   0.99146992   0.11493043
10468.00   0.83525825   0.12264232
10470.00   0.85572320   0.12614167
10472.00   1.03479517   0.12794740
10474.00   1.17302108   0.12744914
10476.00   1.23881257   0.12190129
10478.00   1.25094414   0.11499504
10480.00   1.15326393   0.11876518
10482.00   0.89905894   0.13298529
10484.00   0.77249497   0.13702068
10486.00   0.68426740   0.13795516
10488.00   0.64136249   0.13509350
10490.00   0.66322911   0.12477760
10492.00   0.71194625   0.11253943
10494.00   0.73398620   0.11052432
10496.00   0.75864547   0.11676335
10498.00   0.74437666   0.11680932
10500.00   0.63688546   0.11291189
10502.00   0.64213979   0.11229011
10504.00   0.80221790   0.11567876
10506.00   0.96974057   0.11952407
10508.00   1.02449691   0.12139068
10510.00   1.02079988   0.12248228
10512.00   0.99208307   0.12313925
10514.00   0.86526966   0.12263241
10516.00   0.83785099   0.12297197
10518.00   0.92723423   0.12420148
10520.00   0.99265015   0.12520087
10522.00   0.93660468   0.12529102
10524.00   0.82031649   0.12489749
10526.00   0.83539361   0.12508635
10528.00   1.01911986   0.12600400
10530.00   1.02120876   0.12590036
10532.00   0.87296045   0.12491406
10534.00   0.74415767   0.12393080
10536.00   0.67349696   0.12315708
10538.00   0.63524407   0.12245991
10540.00   0.65939385   0.12198540
10542.00   0.80084842   0.12168463
10544.00   0.80161816   0.12154580
10546.00   0.67236209   0.12108806
10548.00   0.60569721   0.12169762
10550.00   0.61843807   0.12380264
10552.00   0.68327641   0.12655392
10554.00   0.81711525   0.12902872
10556.00   1.08027601   0.13202582
10558.00   1.10610116   0.13322935
10560.00   0.92659932   0.13155389
10562.00   0.79448885   0.13261475
10564.00   0.67988914   0.13734686
10566.00   0.59676224   0.14228085
10568.00   0.59186852   0.14458291
10570.00   0.65461981   0.14547837
10572.00   0.67284036   0.14702556
10574.00   0.66629487   0.14904200
10576.00   0.68994468   0.14995572
10578.00   0.77967030   0.15007551
10580.00   0.82426810   0.14938694
10582.00   0.72882438   0.14729996
10584.00   0.54566377   0.14409798
10586.00   0.49835584   0.14367850
10588.00   0.52364171   0.14671870
10590.00   0.57250237   0.14657493
10592.00   0.70460761   0.14357150
10594.00   0.79550606   0.14125423
10596.00   0.78645313   0.14120716
10598.00   0.72948885   0.14213417
10600.00   0.71860707   0.14202467
10602.00   0.72914141   0.14165503
10604.00   0.72329342   0.14091799
10606.00   0.71435171   0.13877809
10608.00   0.69680583   0.13821529
10610.00   0.65518188   0.14051752
10612.00   0.61642039   0.14357366
10614.00   0.63693523   0.14433621
10616.00   0.71886629   0.14406388
10618.00   0.73939317   0.14276968
10620.00   0.72004360   0.13929920
10622.00   0.71108216   0.13693197
10624.00   0.71702307   0.13596433
10626.00   0.72097462   0.13541986
10628.00   0.70242155   0.13451815
10630.00   0.65987968   0.13357005
10632.00   0.68288618   0.13287087
10634.00   0.79576415   0.13317001
10636.00   0.83088535   0.13183531
10638.00   0.77910894   0.12805711
10640.00   0.72618657   0.12457199
10642.00   0.71977979   0.12352157
10644.00   0.73490745   0.12393299
10646.00   0.80087149   0.12408157
10648.00   1.01108825   0.12589835
10650.00   1.02753115   0.12501307
10652.00   0.85536700   0.12152072
10654.00   0.68949765   0.11766202
10656.00   0.58660293   0.11386551
10658.00   0.51703537   0.11006115
10660.00   0.55451602   0.10881707
10662.00   0.77893972   0.11153761
10664.00   0.81868756   0.11042072
10666.00   0.74081111   0.10630652
10668.00   0.66545504   0.10304002
10670.00   0.59598184   0.10154995
10672.00   0.53977996   0.10096174
10674.00   0.56509674   0.10090232
10676.00   0.68445337   0.10274138
10678.00   0.71859157   0.10092868
10680.00   0.71380717   0.09540675
10682.00   0.69712913   0.09081519
10684.00   0.66928148   0.08682870
10686.00   0.62628406   0.08400948
10688.00   0.55862302   0.08441141
10690.00   0.45353076   0.08816832
10692.00   0.43196473   0.08819065
10694.00   0.47783914   0.08601652
10696.00   0.51983076   0.08399048
10698.00   0.56564641   0.08139089
10700.00   0.62069225   0.07905977
10702.00   0.69210732   0.07792846
10704.00   0.77901435   0.07763071
10706.00   0.82163686   0.07757971
10708.00   0.84526068   0.07889411
10710.00   0.83392155   0.07860957
10712.00   0.77762884   0.07642181
10714.00   0.71073776   0.07469107
10716.00   0.62190253   0.07450905
10718.00   0.52829057   0.07526032
10720.00   0.58542150   0.07688259
10722.00   0.82979476   0.08065939
10724.00   0.94942623   0.08206630
10726.00   1.03028595   0.08262294
10728.00   1.08340466   0.08196823
10730.00   1.11706746   0.07974914
10732.00   1.11978710   0.07629817
10734.00   1.06337774   0.07242391
10736.00   0.93324876   0.06655896
10738.00   0.83696705   0.06319746
10740.00   0.68498838   0.06182070
10742.00   0.64154333   0.06080842
10744.00   0.77022260   0.06025679
10746.00   0.94000077   0.06009853
10748.00   0.98886961   0.06007490
10750.00   0.98708761   0.06078144
10752.00   0.92288440   0.05916775
10754.00   0.73029071   0.05476765
10756.00   0.62240982   0.05135904
10758.00   0.59170592   0.04797579
10760.00   0.59768713   0.04612336
10762.00   0.62518960   0.04830211
10764.00   0.68530571   0.05350247
10766.00   0.72121912   0.05496272
10768.00   0.74932134   0.05410260
10770.00   0.77827823   0.05429615
10772.00   0.81951976   0.05600126
10774.00   0.84018224   0.05635001
10776.00   0.81027126   0.05301818
10778.00   0.75032306   0.04705416
10780.00   0.74921453   0.04535383
10782.00   0.80135697   0.04741014
10784.00   0.81998813   0.04791272
10786.00   0.79779792   0.04861545
10788.00   0.81828070   0.04872625
10790.00   0.93930596   0.04796432
10792.00   1.09132016   0.04656280
10794.00   1.10549617   0.04473687
10796.00   0.98869902   0.04157826
10798.00   0.96681654   0.03995419
10800.00   1.01347363   0.03970217
10802.00   1.00793147   0.03917265
10804.00   0.90660626   0.03777637
10806.00   0.78995490   0.03653787
10808.00   0.76322287   0.03702644
10810.00   0.77639133   0.03892101
10812.00   0.86632657   0.04024364
10814.00   1.13401616   0.04209843
10816.00   1.23915946   0.04301637
10818.00   1.13885748   0.04258152
10820.00   0.99980086   0.04214339
10822.00   0.97631806   0.04296237
10824.00   1.01726067   0.04446235
10826.00   0.90500218   0.04613482
10828.00   0.56153286   0.04936527
10830.00   0.46265590   0.05013113
10832.00   0.61173964   0.04891785
10834.00   0.78637385   0.04651888
10836.00   0.87701952   0.04260742
10838.00   0.94240201   0.03684424
10840.00   0.94324231   0.03395032
10842.00   0.84279269   0.03369365
10844.00   0.80799627   0.03320090
10846.00   0.76892072   0.03344024
10848.00   0.79676539   0.03392525
10850.00   0.95718604   0.03463291
