# File created by shivutils (I.Shivvers)
# 
# wl(A)   flm    er(optional)
3418.00   0.11499062   0.05036287
3420.00   0.00995815   0.04968586
3422.00   0.15483011   0.05000573
3424.00   0.20213271   0.05139488
3426.00   0.21238732   0.05226463
3428.00   0.04533234   0.05382049
3430.00   -0.03056117   0.05380976
3432.00   0.15155843   0.05516602
3434.00   0.13727449   0.05576942
3436.00   0.07286555   0.05529329
3438.00   0.03115210   0.05386440
3440.00   0.19171047   0.05395049
3442.00   0.07560335   0.05379113
3444.00   0.18981714   0.05435640
3446.00   0.02398027   0.05622114
3448.00   0.18137803   0.05902459
3450.00   0.17396171   0.05875761
3452.00   0.03188817   0.05721481
3454.00   -0.01264462   0.05857957
3456.00   0.05533753   0.05681526
3458.00   0.24512257   0.05745326
3460.00   0.08851186   0.05497991
3462.00   0.15927599   0.05661487
3464.00   0.12859802   0.05656237
3466.00   0.06922242   0.05568515
3468.00   0.13823498   0.05596688
3470.00   0.17154340   0.05562098
3472.00   -0.00479814   0.05408498
3474.00   0.15445269   0.05477764
3476.00   0.09956433   0.05503738
3478.00   0.20398081   0.05640480
3480.00   0.16939424   0.05648370
3482.00   0.06777526   0.05566017
3484.00   0.18391903   0.05574157
3486.00   0.22091950   0.05579839
3488.00   0.23953442   0.05423680
3490.00   0.10555182   0.05219285
3492.00   0.13907145   0.05371363
3494.00   0.17604522   0.05262423
3496.00   0.09514687   0.05137603
3498.00   0.11627379   0.05325257
3500.00   -0.01029992   0.05427834
3502.00   0.10919302   0.05332268
3504.00   0.14001984   0.05155545
3506.00   0.12953400   0.05296129
3508.00   0.09363089   0.05235805
3510.00   0.13357927   0.05157073
3512.00   0.09075393   0.05083994
3514.00   0.19663180   0.05143671
3516.00   0.09339047   0.05160059
3518.00   0.09196562   0.04989886
3520.00   0.10661051   0.04853746
3522.00   0.21147836   0.04977445
3524.00   0.07988352   0.04741443
3526.00   -0.00828739   0.04793022
3528.00   0.16946381   0.04893839
3530.00   0.14187168   0.04948901
3532.00   0.21809723   0.04982752
3534.00   0.20329067   0.04962059
3536.00   0.12809024   0.04836282
3538.00   0.12914061   0.05048062
3540.00   0.18471798   0.05085928
3542.00   0.19255029   0.05113860
3544.00   0.17710378   0.05046953
3546.00   0.18753898   0.04985993
3548.00   0.16370256   0.04911846
3550.00   0.09917118   0.04933532
3552.00   0.20223133   0.04823046
3554.00   0.16610552   0.04791156
3556.00   0.17092250   0.04779513
3558.00   0.13037463   0.04666330
3560.00   0.20310082   0.04739579
3562.00   0.12196268   0.04715826
3564.00   0.10229871   0.04389177
3566.00   0.20811291   0.04535982
3568.00   0.19766687   0.04365439
3570.00   0.20986618   0.04407932
3572.00   0.15197046   0.04423842
3574.00   0.09798789   0.04437813
3576.00   0.18796441   0.04421976
3578.00   0.19038542   0.04175701
3580.00   0.19369030   0.04152787
3582.00   0.08924388   0.03972976
3584.00   0.12481502   0.03811423
3586.00   0.09291551   0.03734688
3588.00   0.17442927   0.04140758
3590.00   0.14427406   0.04170136
3592.00   0.18144275   0.04046401
3594.00   0.07245555   0.04006356
3596.00   0.18222699   0.04096836
3598.00   0.13162896   0.04021943
3600.00   0.11773080   0.03915841
3602.00   0.13984588   0.03825534
3604.00   0.20582761   0.03814183
3606.00   0.17123395   0.03714917
3608.00   0.21885076   0.03623005
3610.00   0.13579409   0.03667319
3612.00   0.22746172   0.04007159
3614.00   0.08627182   0.03896830
3616.00   0.20294998   0.03726654
3618.00   0.13378119   0.03556691
3620.00   0.17103768   0.03596676
3622.00   0.21573495   0.03714322
3624.00   0.18557929   0.03714986
3626.00   0.10392660   0.03667239
3628.00   0.20484184   0.03770964
3630.00   0.16038701   0.03689501
3632.00   0.16636134   0.03610386
3634.00   0.19127641   0.03605838
3636.00   0.12129594   0.03576430
3638.00   0.13952836   0.03612332
3640.00   0.19991500   0.03843927
3642.00   0.14439399   0.03767993
3644.00   0.22261259   0.03818187
3646.00   0.18493774   0.04014489
3648.00   0.15660316   0.05214378
3650.00   0.35276957   0.05276465
3652.00   0.13019266   0.04671548
3654.00   0.17954465   0.04480368
3656.00   0.07735303   0.03750506
3658.00   0.16715145   0.03689944
3660.00   0.18782438   0.04029022
3662.00   0.23174966   0.04338008
3664.00   0.05482860   0.03564464
3666.00   0.18392426   0.03377290
3668.00   0.11793962   0.03178526
3670.00   0.22003508   0.03271998
3672.00   0.23753208   0.03274605
3674.00   0.16802157   0.03194553
3676.00   0.16643974   0.03056238
3678.00   0.22467474   0.03080987
3680.00   0.13986019   0.03015465
3682.00   0.20533979   0.03083208
3684.00   0.09680877   0.02915839
3686.00   0.16441042   0.02871844
3688.00   0.13796050   0.02940976
3690.00   0.17444837   0.03083669
3692.00   0.11871491   0.02972655
3694.00   0.18557652   0.02961216
3696.00   0.19616963   0.03039309
3698.00   0.12940006   0.03020242
3700.00   0.13779148   0.03015197
3702.00   0.19463761   0.02925829
3704.00   0.11373101   0.02803168
3706.00   0.16303069   0.02753683
3708.00   0.09027064   0.02732692
3710.00   0.20423715   0.02894229
3712.00   0.23173874   0.02969457
3714.00   0.15384594   0.02885975
3716.00   0.20021208   0.02902488
3718.00   0.18929501   0.02719308
3720.00   0.10382756   0.02589402
3722.00   0.10488419   0.02599032
3724.00   0.15287370   0.02801310
3726.00   0.21272631   0.02782450
3728.00   0.18299524   0.02754524
3730.00   0.19091891   0.02670797
3732.00   0.18122815   0.02580157
3734.00   0.20243445   0.02483649
3736.00   0.20114590   0.02549927
3738.00   0.14754827   0.02667449
3740.00   0.15863991   0.02727484
3742.00   0.16367089   0.02566637
3744.00   0.18348047   0.02477543
3746.00   0.15588809   0.02395220
3748.00   0.16148033   0.02384209
3750.00   0.17448269   0.02572250
3752.00   0.17903659   0.02635501
3754.00   0.19537708   0.02698155
3756.00   0.18215295   0.02479908
3758.00   0.10952771   0.02384697
3760.00   0.17582816   0.02464408
3762.00   0.22404611   0.02494265
3764.00   0.21904919   0.02498341
3766.00   0.15001601   0.02371065
3768.00   0.14062644   0.02368912
3770.00   0.13591270   0.02441983
3772.00   0.18830760   0.02477208
3774.00   0.14360433   0.02417744
3776.00   0.17018417   0.02462569
3778.00   0.17959718   0.02458075
3780.00   0.16216691   0.02466785
3782.00   0.12037351   0.02408362
3784.00   0.11672558   0.02354982
3786.00   0.12125107   0.02266575
3788.00   0.18618693   0.02342221
3790.00   0.23501152   0.02443062
3792.00   0.18038392   0.02320417
3794.00   0.18498560   0.02293900
3796.00   0.19421031   0.02243068
3798.00   0.18141393   0.02181871
3800.00   0.23561918   0.02361242
3802.00   0.19754922   0.02399180
3804.00   0.20031166   0.02349989
3806.00   0.18836193   0.02260691
3808.00   0.21901185   0.02327289
3810.00   0.17996295   0.02293335
3812.00   0.21824107   0.02246557
3814.00   0.20034032   0.02143761
3816.00   0.22823465   0.02224986
3818.00   0.25416891   0.02164912
3820.00   0.16827398   0.02065175
3822.00   0.15408749   0.02050942
3824.00   0.23985850   0.02075636
3826.00   0.23242135   0.02072012
3828.00   0.18956248   0.02118399
3830.00   0.19931618   0.02094520
3832.00   0.17286508   0.02017924
3834.00   0.23203976   0.02082840
3836.00   0.14297706   0.02010021
3838.00   0.18875694   0.02031496
3840.00   0.15922826   0.01981276
3842.00   0.16075211   0.02055351
3844.00   0.18518942   0.02071083
3846.00   0.19798863   0.02110215
3848.00   0.21432406   0.02090947
3850.00   0.15780782   0.01986544
3852.00   0.15510244   0.01983593
3854.00   0.14198957   0.01945562
3856.00   0.18768905   0.01970903
3858.00   0.17275179   0.01831410
3860.00   0.18690137   0.01910411
3862.00   0.19293533   0.02020722
3864.00   0.18095139   0.02000045
3866.00   0.22745098   0.02038862
3868.00   0.26657347   0.02030702
3870.00   0.25651501   0.01936250
3872.00   0.24781680   0.02059309
3874.00   0.21152419   0.02130435
3876.00   0.22439856   0.02053141
3878.00   0.24942337   0.02011647
3880.00   0.20024340   0.01949354
3882.00   0.24404042   0.01972917
3884.00   0.18874216   0.01956882
3886.00   0.22262968   0.01923703
3888.00   0.18161770   0.01868586
3890.00   0.15337164   0.01915701
3892.00   0.21726449   0.02003657
3894.00   0.21536446   0.02037491
3896.00   0.22762755   0.02021269
3898.00   0.19410181   0.01974141
3900.00   0.18206833   0.02006366
3902.00   0.18720607   0.01978411
3904.00   0.24701506   0.02120835
3906.00   0.22385758   0.02327848
3908.00   0.23167143   0.02373462
3910.00   0.15422021   0.02379882
3912.00   0.18201425   0.02458478
3914.00   0.19458373   0.02244414
3916.00   0.25328965   0.02128942
3918.00   0.24495768   0.02021162
3920.00   0.25254676   0.01956460
3922.00   0.24979384   0.01950944
3924.00   0.22598453   0.01930162
3926.00   0.25288194   0.01867645
3928.00   0.23962309   0.01811415
3930.00   0.26108799   0.01785195
3932.00   0.26528269   0.01924647
3934.00   0.28164155   0.01847171
3936.00   0.24463267   0.01756429
3938.00   0.24155655   0.01808046
3940.00   0.25609299   0.01881162
3942.00   0.26399329   0.01988967
3944.00   0.29574535   0.02062346
3946.00   0.27993438   0.02012127
3948.00   0.28797670   0.01979192
3950.00   0.27287276   0.01998638
3952.00   0.31470015   0.01978071
3954.00   0.30831151   0.02138987
3956.00   0.23496605   0.01849386
3958.00   0.14662478   0.01757837
3960.00   0.16170497   0.01881115
3962.00   0.21945931   0.01844203
3964.00   0.26018989   0.01764022
3966.00   0.26919239   0.01728865
3968.00   0.27003289   0.01688131
3970.00   0.23145728   0.01702047
3972.00   0.26151529   0.01810254
3974.00   0.20260365   0.01766367
3976.00   0.20224853   0.01807169
3978.00   0.20263414   0.01847455
3980.00   0.20244854   0.01854302
3982.00   0.23085596   0.01848599
3984.00   0.24068387   0.01861242
3986.00   0.25040938   0.01868511
3988.00   0.23727663   0.01905831
3990.00   0.23680067   0.01915535
3992.00   0.20389761   0.01841585
3994.00   0.13893236   0.01828088
3996.00   0.18360592   0.01942368
3998.00   0.27814275   0.01978093
4000.00   0.24600868   0.01944676
4002.00   0.31406633   0.01975017
4004.00   0.26442640   0.01883623
4006.00   0.23295299   0.01896191
4008.00   0.23288911   0.01931268
4010.00   0.28616702   0.01980627
4012.00   0.25592666   0.01974910
4014.00   0.24792293   0.01922595
4016.00   0.25047700   0.01923109
4018.00   0.32616753   0.02195572
4020.00   0.26314053   0.02274607
4022.00   0.26849575   0.02281936
4024.00   0.27697277   0.02230602
4026.00   0.24805374   0.02048491
4028.00   0.23327939   0.01979116
4030.00   0.27827162   0.01991699
4032.00   0.28112737   0.01909952
4034.00   0.25710063   0.01896146
4036.00   0.24816524   0.01922763
4038.00   0.25721819   0.01903059
4040.00   0.24382811   0.01889164
4042.00   0.25396637   0.01926813
4044.00   0.26109735   0.02794357
4046.00   0.20985882   0.03652534
4048.00   0.25733374   0.02546945
4050.00   0.26139984   0.02006778
4052.00   0.24297183   0.01953467
4054.00   0.20498049   0.01966276
4056.00   0.29338890   0.01924519
4058.00   0.28938508   0.01850071
4060.00   0.29838256   0.01844614
4062.00   0.24400275   0.01749423
4064.00   0.26702005   0.01784509
4066.00   0.22674120   0.01759447
4068.00   0.26766405   0.01831014
4070.00   0.21636878   0.01715048
4072.00   0.22105896   0.01703438
4074.00   0.26237125   0.01788724
4076.00   0.22713989   0.02010058
4078.00   0.25617377   0.01991308
4080.00   0.24253132   0.01884555
4082.00   0.30699748   0.01951098
4084.00   0.29008257   0.01860349
4086.00   0.26515897   0.01909158
4088.00   0.25599040   0.01804596
4090.00   0.28554307   0.01725721
4092.00   0.30156152   0.01738352
4094.00   0.29070507   0.01740044
4096.00   0.28586753   0.01712848
4098.00   0.24428191   0.01675432
4100.00   0.27189549   0.01645243
4102.00   0.25985206   0.01602912
4104.00   0.27031482   0.01657478
4106.00   0.26503783   0.01675308
4108.00   0.25965747   0.01690569
4110.00   0.30708744   0.01700097
4112.00   0.25494756   0.01686765
4114.00   0.28301405   0.01730326
4116.00   0.29761277   0.01749240
4118.00   0.30293976   0.01677467
4120.00   0.31316061   0.01685478
4122.00   0.31960648   0.01703727
4124.00   0.29524314   0.01675824
4126.00   0.28228132   0.01662464
4128.00   0.26363065   0.01634740
4130.00   0.33937972   0.01734401
4132.00   0.35686142   0.01795807
4134.00   0.35969664   0.01775081
4136.00   0.34443208   0.01736772
4138.00   0.36309591   0.01789306
4140.00   0.31120529   0.01813996
4142.00   0.31087303   0.01657098
4144.00   0.33543398   0.01669364
4146.00   0.32868375   0.01683826
4148.00   0.29850301   0.01657656
4150.00   0.32029758   0.01728897
4152.00   0.27190045   0.01765468
4154.00   0.32155590   0.01674327
4156.00   0.26926325   0.01609461
4158.00   0.28942006   0.01643563
4160.00   0.26427691   0.01637504
4162.00   0.27150524   0.01693381
4164.00   0.30304361   0.01835126
4166.00   0.28605765   0.01729157
4168.00   0.26858022   0.01628160
4170.00   0.28765930   0.01623278
4172.00   0.27605100   0.01577403
4174.00   0.29541601   0.01577871
4176.00   0.26180618   0.01582761
4178.00   0.29821713   0.01643129
4180.00   0.31490503   0.01625674
4182.00   0.26938763   0.01549351
4184.00   0.32541476   0.01606447
4186.00   0.27463682   0.01564933
4188.00   0.27468804   0.01549598
4190.00   0.24760372   0.01543653
4192.00   0.31082873   0.01623697
4194.00   0.29961422   0.01591396
4196.00   0.31664801   0.01552869
4198.00   0.29128591   0.01517928
4200.00   0.27830859   0.01521844
4202.00   0.30745225   0.01542221
4204.00   0.32332377   0.01590193
4206.00   0.31047618   0.01590484
4208.00   0.34210428   0.01641926
4210.00   0.32122380   0.01634268
4212.00   0.31037896   0.01626403
4214.00   0.31646182   0.01583203
4216.00   0.34039078   0.01591757
4218.00   0.30106861   0.01574726
4220.00   0.30272936   0.01579604
4222.00   0.29439888   0.01560400
4224.00   0.30043764   0.01521311
4226.00   0.29697727   0.01493044
4228.00   0.29346274   0.01529162
4230.00   0.25325306   0.01552931
4232.00   0.30149091   0.01591095
4234.00   0.30418995   0.01568088
4236.00   0.27835019   0.01566296
4238.00   0.26999398   0.01593157
4240.00   0.30512854   0.01542115
4242.00   0.31561590   0.01528692
4244.00   0.30807668   0.01620842
4246.00   0.28847904   0.01839014
4248.00   0.35783276   0.01658091
4250.00   0.32677046   0.01537815
4252.00   0.35552629   0.01556134
4254.00   0.28057891   0.01494507
4256.00   0.35269150   0.01578775
4258.00   0.35615811   0.01556865
4260.00   0.33948763   0.01521006
4262.00   0.31966430   0.01533441
4264.00   0.33871725   0.01536584
4266.00   0.33294944   0.01528476
4268.00   0.37445354   0.01538383
4270.00   0.33224594   0.01484235
4272.00   0.33538511   0.01515615
4274.00   0.31090724   0.01478236
4276.00   0.33098422   0.01552496
4278.00   0.32148027   0.01542892
4280.00   0.33282031   0.01515999
4282.00   0.33126236   0.01542020
4284.00   0.35298334   0.01519536
4286.00   0.29573348   0.01471216
4288.00   0.31608781   0.01471215
4290.00   0.29823840   0.01451391
4292.00   0.32963819   0.01639825
4294.00   0.33673497   0.01591397
4296.00   0.29663918   0.01462027
4298.00   0.31491545   0.01428671
4300.00   0.33037562   0.01419007
4302.00   0.32145282   0.01424106
4304.00   0.33394727   0.01452640
4306.00   0.30724701   0.01455540
4308.00   0.32370359   0.01427807
4310.00   0.33223468   0.01447415
4312.00   0.32167656   0.01584654
4314.00   0.35089812   0.01688960
4316.00   0.33278977   0.01582062
4318.00   0.27661268   0.01553431
4320.00   0.32388293   0.01679179
4322.00   0.31044954   0.01560887
4324.00   0.32114114   0.01580100
4326.00   0.34670418   0.01559046
4328.00   0.28850951   0.01494449
4330.00   0.29533802   0.01501828
4332.00   0.34482743   0.01533909
4334.00   0.33091932   0.01539794
4336.00   0.31764735   0.01524811
4338.00   0.36303541   0.01558304
4340.00   0.35219700   0.01540491
4342.00   0.28057309   0.01494627
4344.00   0.36038357   0.01612844
4346.00   0.37682371   0.01709589
4348.00   0.37827374   0.01737565
4350.00   0.41516613   0.01658496
4352.00   0.42036204   0.01647037
4354.00   0.37690791   0.01698661
4356.00   0.49848777   0.02850252
4358.00   0.46865907   0.03909914
4360.00   0.48195113   0.02603339
4362.00   0.50197378   0.01900545
4364.00   0.48533438   0.01817337
4366.00   0.41522865   0.01715388
4368.00   0.39741383   0.01676776
4370.00   0.42183301   0.01684065
4372.00   0.45118528   0.01737807
4374.00   0.46896543   0.01806624
4376.00   0.43174235   0.01699236
4378.00   0.40386999   0.01648270
4380.00   0.40115995   0.01626260
4382.00   0.38256241   0.01573622
4384.00   0.41709605   0.01558523
4386.00   0.43959674   0.01602156
4388.00   0.40861476   0.01590755
4390.00   0.37583466   0.01582286
4392.00   0.38143557   0.01589669
4394.00   0.39321521   0.01571002
4396.00   0.33050427   0.01529480
4398.00   0.35423166   0.01578766
4400.00   0.34874983   0.01627080
4402.00   0.35428521   0.01571865
4404.00   0.33845034   0.01507198
4406.00   0.37086116   0.01532698
4408.00   0.36162317   0.01557945
4410.00   0.36693437   0.01560021
4412.00   0.35420187   0.01564630
4414.00   0.32411006   0.01561569
4416.00   0.35279356   0.01573048
4418.00   0.37084833   0.01557794
4420.00   0.34106278   0.01548940
4422.00   0.29336605   0.01492900
4424.00   0.29424728   0.01488846
4426.00   0.32472231   0.01503534
4428.00   0.28372123   0.01479120
4430.00   0.38668860   0.01548365
4432.00   0.38929767   0.01554245
4434.00   0.37523879   0.01516761
4436.00   0.33704100   0.01502195
4438.00   0.32458323   0.01514717
4440.00   0.35601111   0.01529307
4442.00   0.34653142   0.01510677
4444.00   0.35308474   0.01517889
4446.00   0.29585710   0.01487728
4448.00   0.35346093   0.01503416
4450.00   0.31144486   0.01493605
4452.00   0.35314342   0.01502419
4454.00   0.36424469   0.01485694
4456.00   0.34134848   0.01485016
4458.00   0.36951863   0.01495771
4460.00   0.36803976   0.01492319
4462.00   0.39094234   0.01512507
4464.00   0.38511252   0.01518462
4466.00   0.35447338   0.01495157
4468.00   0.34780566   0.01487784
4470.00   0.35741949   0.01490986
4472.00   0.31091700   0.01461582
4474.00   0.34255663   0.01495479
4476.00   0.38148307   0.01527430
4478.00   0.39798079   0.01521711
4480.00   0.37556648   0.01492953
4482.00   0.41161226   0.01516160
4484.00   0.36356842   0.01514385
4486.00   0.35876232   0.01511525
4488.00   0.40635752   0.01526934
4490.00   0.40931561   0.01519305
4492.00   0.38747810   0.01535621
4494.00   0.32772574   0.01497016
4496.00   0.32665058   0.01491577
4498.00   0.33623458   0.01518744
4500.00   0.36954376   0.01527288
4502.00   0.38642458   0.01526171
4504.00   0.46450573   0.01580959
4506.00   0.42113353   0.01552654
4508.00   0.41063794   0.01540718
4510.00   0.42529392   0.01537004
4512.00   0.38697576   0.01507336
4514.00   0.42757089   0.01537229
4516.00   0.40569931   0.01508113
4518.00   0.39651148   0.01494529
4520.00   0.42578132   0.01517898
4522.00   0.40134874   0.01499119
4524.00   0.44182852   0.01497938
4526.00   0.42381159   0.01478434
4528.00   0.37780509   0.01446780
4530.00   0.33331353   0.01426422
4532.00   0.40387814   0.01472988
4534.00   0.42181539   0.01485462
4536.00   0.44032995   0.01494946
4538.00   0.42545544   0.01486217
4540.00   0.42682645   0.01486888
4542.00   0.42561076   0.01497684
4544.00   0.37966383   0.01477528
4546.00   0.39491035   0.01477658
4548.00   0.40052441   0.01446334
4550.00   0.36026850   0.01419214
4552.00   0.37916843   0.01428223
4554.00   0.40681950   0.01442937
4556.00   0.41748781   0.01482973
4558.00   0.36226865   0.01429592
4560.00   0.37859425   0.01437827
4562.00   0.37561869   0.01424458
4564.00   0.36899911   0.01396148
4566.00   0.42695244   0.01438802
4568.00   0.38258653   0.01434196
4570.00   0.40495825   0.01438402
4572.00   0.38725402   0.01428108
4574.00   0.37431394   0.01441819
4576.00   0.39603374   0.01424800
4578.00   0.38844410   0.01403251
4580.00   0.33089687   0.01355897
4582.00   0.42811675   0.01414793
4584.00   0.41410079   0.01398555
4586.00   0.40505663   0.01382575
4588.00   0.40560400   0.01411210
4590.00   0.40487203   0.01405244
4592.00   0.41551089   0.01410027
4594.00   0.38266592   0.01395373
4596.00   0.41212160   0.01411111
4598.00   0.47462302   0.01446168
4600.00   0.42417221   0.01398237
4602.00   0.44125858   0.01406056
4604.00   0.46595567   0.01439138
4606.00   0.46767052   0.01443695
4608.00   0.47215364   0.01454772
4610.00   0.44098614   0.01437286
4612.00   0.43670333   0.01413137
4614.00   0.41859013   0.01393706
4616.00   0.46747377   0.01422009
4618.00   0.45505666   0.01412789
4620.00   0.42736689   0.01404064
4622.00   0.44065895   0.01405374
4624.00   0.44990804   0.01414554
4626.00   0.46084212   0.01418047
4628.00   0.46923106   0.01425430
4630.00   0.43843526   0.01406914
4632.00   0.42707625   0.01413726
4634.00   0.46256981   0.01413785
4636.00   0.47284326   0.01412050
4638.00   0.46996571   0.01427065
4640.00   0.44423034   0.01409723
4642.00   0.44106584   0.01402504
4644.00   0.45907517   0.01411572
4646.00   0.48449546   0.01405553
4648.00   0.43886969   0.01392280
4650.00   0.44301105   0.01407568
4652.00   0.46045544   0.01423349
4654.00   0.49731214   0.01443006
4656.00   0.47764524   0.01432350
4658.00   0.44054443   0.01418906
4660.00   0.47425781   0.01447907
4662.00   0.46444021   0.01455854
4664.00   0.43808417   0.01449086
4666.00   0.44787576   0.01445962
4668.00   0.45019348   0.01458830
4670.00   0.45372828   0.01479472
4672.00   0.46344696   0.01478306
4674.00   0.44532445   0.01451996
4676.00   0.47521771   0.01456462
4678.00   0.47015596   0.01419608
4680.00   0.48216688   0.01424936
4682.00   0.46128442   0.01403848
4684.00   0.45053454   0.01403768
4686.00   0.43004477   0.01377558
4688.00   0.42321361   0.01362675
4690.00   0.41573600   0.01366112
4692.00   0.44533344   0.01377878
4694.00   0.42070211   0.01362681
4696.00   0.44918449   0.01377850
4698.00   0.45138545   0.01351895
4700.00   0.40833165   0.01314237
4702.00   0.40463130   0.01322177
4704.00   0.41406340   0.01339670
4706.00   0.42730970   0.01350983
4708.00   0.40511586   0.01357378
4710.00   0.43515558   0.01364998
4712.00   0.43539409   0.01357493
4714.00   0.40624279   0.01336118
4716.00   0.41889352   0.01338712
4718.00   0.41979648   0.01335216
4720.00   0.41924319   0.01340909
4722.00   0.40409705   0.01335653
4724.00   0.40470023   0.01333897
4726.00   0.41121137   0.01329364
4728.00   0.37799913   0.01407755
4730.00   0.39874710   0.01404302
4732.00   0.38057088   0.01364719
4734.00   0.42225740   0.01431046
4736.00   0.41088828   0.01422994
4738.00   0.42413342   0.01447590
4740.00   0.38290758   0.01449502
4742.00   0.39702350   0.01499779
4744.00   0.43072606   0.01509353
4746.00   0.38100288   0.01353371
4748.00   0.39671084   0.01319043
4750.00   0.38443224   0.01309794
4752.00   0.41741200   0.01364689
4754.00   0.41710792   0.01338861
4756.00   0.39767298   0.01292289
4758.00   0.41416031   0.01284567
4760.00   0.40995312   0.01275090
4762.00   0.41581401   0.01269468
4764.00   0.39802572   0.01250103
4766.00   0.38670478   0.01242924
4768.00   0.38256706   0.01239228
4770.00   0.40067653   0.01257110
4772.00   0.38996886   0.01250488
4774.00   0.43962177   0.01285745
4776.00   0.42288745   0.01279043
4778.00   0.39700643   0.01314629
4780.00   0.43881405   0.01332901
4782.00   0.40970259   0.01270894
4784.00   0.42055459   0.01261085
4786.00   0.44360593   0.01272419
4788.00   0.43088639   0.01272065
4790.00   0.44132717   0.01288055
4792.00   0.38902314   0.01258736
4794.00   0.39879264   0.01255987
4796.00   0.40342626   0.01252903
4798.00   0.41628905   0.01248233
4800.00   0.44420230   0.01259773
4802.00   0.44476077   0.01267813
4804.00   0.45776320   0.01276755
4806.00   0.47296746   0.01281179
4808.00   0.44723771   0.01277152
4810.00   0.44368467   0.01266603
4812.00   0.48851035   0.01303165
4814.00   0.47160612   0.01298670
4816.00   0.46941265   0.01303102
4818.00   0.47452066   0.01300213
4820.00   0.48133787   0.01306884
4822.00   0.45026996   0.01297355
4824.00   0.47252830   0.01304670
4826.00   0.48437381   0.01327098
4828.00   0.48482992   0.01321159
4830.00   0.48367306   0.01312253
4832.00   0.52336369   0.01352832
4834.00   0.51251091   0.01341719
4836.00   0.48138039   0.01303521
4838.00   0.50987375   0.01347720
4840.00   0.55488441   0.01393453
4842.00   0.58901821   0.01390658
4844.00   0.58506402   0.01369231
4846.00   0.62343173   0.01398778
4848.00   0.64804305   0.01423390
4850.00   0.67621413   0.01429699
4852.00   0.68489625   0.01448818
4854.00   0.65636157   0.01414183
4856.00   0.71940542   0.01430714
4858.00   0.78266018   0.01459524
4860.00   0.83337072   0.01475944
4862.00   0.85366094   0.01496491
4864.00   0.87716138   0.01522821
4866.00   0.91512225   0.01544069
4868.00   0.92627482   0.01553594
4870.00   0.98472980   0.01577346
4872.00   1.01830915   0.01595003
4874.00   1.06914202   0.01622901
4876.00   1.07686624   0.01629541
4878.00   1.11404947   0.01661657
4880.00   1.07328603   0.01644931
4882.00   1.17377319   0.01679515
4884.00   1.24292861   0.01706430
4886.00   1.19513035   0.01676711
4888.00   1.16998190   0.01660886
4890.00   1.22192056   0.01671906
4892.00   1.13319803   0.01636056
4894.00   1.07828593   0.01622591
4896.00   1.11701705   0.01645731
4898.00   1.13608462   0.01647649
4900.00   1.16911616   0.01661596
4902.00   1.14182143   0.01640371
4904.00   1.03377079   0.01585594
4906.00   0.94472649   0.01546330
4908.00   0.88741161   0.01516443
4910.00   0.84912456   0.01498254
4912.00   0.83034783   0.01486939
4914.00   0.81621715   0.01477862
4916.00   0.75526108   0.01445444
4918.00   0.74126683   0.01423728
4920.00   0.72404501   0.01409235
4922.00   0.73329404   0.01418774
4924.00   0.69860209   0.01399350
4926.00   0.66457264   0.01374620
4928.00   0.62831113   0.01348923
4930.00   0.63272186   0.01353449
4932.00   0.63378468   0.01343504
4934.00   0.61466990   0.01344147
4936.00   0.60004294   0.01334148
4938.00   0.62824923   0.01346939
4940.00   0.59811231   0.01338774
4942.00   0.58144542   0.01326477
4944.00   0.54640737   0.01300409
4946.00   0.59648294   0.01318411
4948.00   0.58155734   0.01316549
4950.00   0.55921650   0.01305326
4952.00   0.59502149   0.01330052
4954.00   0.55956969   0.01324488
4956.00   0.50751489   0.01277069
4958.00   0.58771363   0.01307188
4960.00   0.60312534   0.01322449
4962.00   0.57175301   0.01314664
4964.00   0.57078361   0.01318055
4966.00   0.57319662   0.01311604
4968.00   0.53122176   0.01295585
4970.00   0.52735410   0.01302640
4972.00   0.51691908   0.01322233
4974.00   0.49234739   0.01337936
4976.00   0.49676875   0.01351302
4978.00   0.47441116   0.01370654
4980.00   0.46967417   0.01418709
4982.00   0.47537231   0.01444846
4984.00   0.48478254   0.01432068
4986.00   0.46559058   0.01400583
4988.00   0.45470503   0.01363702
4990.00   0.46764739   0.01337282
4992.00   0.44377941   0.01313590
4994.00   0.44882305   0.01281214
4996.00   0.43906188   0.01249533
4998.00   0.42371790   0.01218019
5000.00   0.45131096   0.01220626
5002.00   0.44355910   0.01217998
5004.00   0.44190132   0.01204437
5006.00   0.43853316   0.01201999
5008.00   0.47584611   0.01224329
5010.00   0.46893801   0.01213849
5012.00   0.47361636   0.01210378
5014.00   0.46732143   0.01205713
5016.00   0.45504085   0.01205505
5018.00   0.49510675   0.01240718
5020.00   0.49847825   0.01258008
5022.00   0.51670949   0.01267764
5024.00   0.49616790   0.01235308
5026.00   0.51852791   0.01237444
5028.00   0.54374932   0.01268408
5030.00   0.53635260   0.01285969
5032.00   0.55778860   0.01308340
5034.00   0.56934974   0.01291668
5036.00   0.58900991   0.01285749
5038.00   0.59087449   0.01282187
5040.00   0.59158507   0.01282740
5042.00   0.61086779   0.01293870
5044.00   0.59551086   0.01299926
5046.00   0.56443030   0.01282170
5048.00   0.55701427   0.01269916
5050.00   0.54986802   0.01265317
5052.00   0.56543267   0.01278723
5054.00   0.63953881   0.01330287
5056.00   0.66073258   0.01346884
5058.00   0.66205753   0.01344620
5060.00   0.64958221   0.01337658
5062.00   0.63853784   0.01343040
5064.00   0.60544675   0.01358803
5066.00   0.62249068   0.01355548
5068.00   0.62841417   0.01380076
5070.00   0.60593314   0.01412944
5072.00   0.61491722   0.01378775
5074.00   0.60429605   0.01330042
5076.00   0.61333958   0.01353846
5078.00   0.58163646   0.01311305
5080.00   0.57961405   0.01375133
5082.00   0.57851193   0.01503807
5084.00   0.59261597   0.01561604
5086.00   0.53777968   0.01567445
5088.00   0.52021906   0.01480387
5090.00   0.52834699   0.01380972
5092.00   0.50973689   0.01314748
5094.00   0.51087569   0.01286802
5096.00   0.45553601   0.01278483
5098.00   0.49470275   0.01321296
5100.00   0.50742034   0.01357240
5102.00   0.49802746   0.01325240
5104.00   0.48339855   0.01263957
5106.00   0.45715426   0.01234955
5108.00   0.47071219   0.01241649
5110.00   0.45206629   0.01235694
5112.00   0.46550344   0.01250964
5114.00   0.46283889   0.01248586
5116.00   0.48466112   0.01284522
5118.00   0.48184876   0.01273650
5120.00   0.47648259   0.01244641
5122.00   0.46846594   0.01242332
5124.00   0.48884769   0.01249621
5126.00   0.48838389   0.01248395
5128.00   0.49012487   0.01249125
5130.00   0.49983707   0.01254646
5132.00   0.50989220   0.01268359
5134.00   0.50017808   0.01261968
5136.00   0.51853825   0.01276709
5138.00   0.52696221   0.01273707
5140.00   0.52415640   0.01272015
5142.00   0.54963368   0.01294215
5144.00   0.54154273   0.01297418
5146.00   0.54385838   0.01305922
5148.00   0.52815571   0.01322183
5150.00   0.54197488   0.01352002
5152.00   0.51764576   0.01353664
5154.00   0.57297696   0.01415334
5156.00   0.53118455   0.01371049
5158.00   0.51342739   0.01343258
5160.00   0.55474545   0.01342181
5162.00   0.54224293   0.01313125
5164.00   0.53557957   0.01306881
5166.00   0.55446696   0.01305289
5168.00   0.55383684   0.01299822
5170.00   0.55829453   0.01302225
5172.00   0.58045877   0.01305793
5174.00   0.58765905   0.01325852
5176.00   0.58095263   0.01340284
5178.00   0.56406761   0.01336845
5180.00   0.57238930   0.01334729
5182.00   0.57927079   0.01332946
5184.00   0.58482877   0.01323033
5186.00   0.58583980   0.01344958
5188.00   0.55808789   0.01333638
5190.00   0.59329930   0.01364760
5192.00   0.64175635   0.01392035
5194.00   0.63210618   0.01392720
5196.00   0.61813570   0.01408584
5198.00   0.60591167   0.01448938
5200.00   0.58675474   0.01437172
5202.00   0.55973084   0.01390329
5204.00   0.55651615   0.01361988
5206.00   0.64165508   0.01395352
5208.00   0.67570715   0.01435962
5210.00   0.70630623   0.01496545
5212.00   0.70807884   0.01497002
5214.00   0.67154074   0.01455616
5216.00   0.64121158   0.01424221
5218.00   0.62382093   0.01430610
5220.00   0.59621962   0.01423512
5222.00   0.59896176   0.01416384
5224.00   0.63284455   0.01429092
5226.00   0.65482488   0.01426126
5228.00   0.64071977   0.01417872
5230.00   0.62880330   0.01434166
5232.00   0.66093624   0.01459261
5234.00   0.65907221   0.01458656
5236.00   0.69183470   0.01467820
5238.00   0.71017721   0.01494730
5240.00   0.69117869   0.01496334
5242.00   0.68383382   0.01483593
5244.00   0.67343173   0.01474442
5246.00   0.63264970   0.01451545
5248.00   0.66787989   0.01474254
5250.00   0.67235446   0.01476200
5252.00   0.68402085   0.01492248
5254.00   0.67729998   0.01481481
5256.00   0.67401372   0.01505832
5258.00   0.67982404   0.01543119
5260.00   0.63610957   0.01503654
5262.00   0.64679502   0.01489306
5264.00   0.68742396   0.01496639
5266.00   0.68323740   0.01496717
5268.00   0.67919869   0.01497096
5270.00   0.69059859   0.01507427
5272.00   0.68710760   0.01511441
5274.00   0.70726325   0.01534042
5276.00   0.72614681   0.01559805
5278.00   0.71427487   0.01563894
5280.00   0.70897639   0.01557842
5282.00   0.72764351   0.01566168
5284.00   0.67840992   0.01558876
5286.00   0.73556956   0.01608434
5288.00   0.72000983   0.01602417
5290.00   0.71417398   0.01591182
5292.00   0.71890406   0.01589905
5294.00   0.71989261   0.01595893
5296.00   0.72173830   0.01594583
5298.00   0.68895607   0.01571669
5300.00   0.68527274   0.01576475
5302.00   0.66938522   0.01579697
5304.00   0.69972700   0.01599700
5306.00   0.72238949   0.01613759
5308.00   0.70906881   0.01612236
5310.00   0.70144513   0.01616588
5312.00   0.68791837   0.01630619
5314.00   0.70365345   0.01628333
5316.00   0.68649360   0.01620683
5318.00   0.72039160   0.01648179
5320.00   0.70219399   0.01638601
5322.00   0.71347578   0.01658379
5324.00   0.70591788   0.01655644
5326.00   0.69851644   0.01657592
5328.00   0.70738985   0.01657930
5330.00   0.71214963   0.01663170
5332.00   0.71752372   0.01687146
5334.00   0.71039927   0.01679501
5336.00   0.71807429   0.01687442
5338.00   0.72037106   0.01705333
5340.00   0.70102673   0.01717959
5342.00   0.69165652   0.01741965
5344.00   0.73937678   0.01764221
5346.00   0.71165757   0.01740171
5348.00   0.73490158   0.01805193
5350.00   0.67619064   0.01816725
5352.00   0.69655499   0.01778522
5354.00   0.69322449   0.01783581
5356.00   0.72432736   0.01871278
5358.00   0.75780055   0.01854480
5360.00   0.73259070   0.01806991
5362.00   0.66989088   0.01752432
5364.00   0.66666647   0.01723410
5366.00   0.71635162   0.01762569
5368.00   0.70012196   0.01756071
5370.00   0.66600560   0.01730234
5372.00   0.62782776   0.01711351
5374.00   0.65376635   0.01782734
5376.00   0.69057508   0.01826295
5378.00   0.70281526   0.01825147
5380.00   0.66360811   0.01791994
5382.00   0.68711846   0.01800297
5384.00   0.67886584   0.01798407
5386.00   0.66452699   0.01810265
5388.00   0.65047801   0.01796992
5390.00   0.64652162   0.01816333
5392.00   0.67599792   0.01901914
5394.00   0.66424152   0.01884408
5396.00   0.68238611   0.01878839
5398.00   0.66988271   0.00831057
5400.00   0.65545905   0.00889516
5402.00   0.65586811   0.00904695
5404.00   0.67476800   0.00887651
5406.00   0.67659619   0.00877693
5408.00   0.66590288   0.00865068
5410.00   0.65688020   0.00868066
5412.00   0.66738239   0.00874441
5414.00   0.69644096   0.00880649
5416.00   0.69779086   0.00869790
5418.00   0.67139480   0.00833574
5420.00   0.66644076   0.00815343
5422.00   0.68379620   0.00816296
5424.00   0.69665736   0.00820319
5426.00   0.69950548   0.00819719
5428.00   0.69866067   0.00819039
5430.00   0.69424158   0.00816221
5432.00   0.68396407   0.00810300
5434.00   0.68223724   0.00807557
5436.00   0.68968523   0.00806654
5438.00   0.69114286   0.00806870
5440.00   0.68244588   0.00808335
5442.00   0.67294347   0.00810200
5444.00   0.67398927   0.00808626
5446.00   0.67609432   0.00799085
5448.00   0.68144122   0.00810492
5450.00   0.69475630   0.00817607
5452.00   0.70408708   0.00867111
5454.00   0.70016563   0.00976366
5456.00   0.69611272   0.01077632
5458.00   0.70489928   0.01124078
5460.00   0.71608937   0.01141063
5462.00   0.71155852   0.01108316
5464.00   0.69931498   0.00986677
5466.00   0.67987716   0.00905583
5468.00   0.63402089   0.00855289
5470.00   0.59914345   0.00829854
5472.00   0.60027468   0.00817522
5474.00   0.62095451   0.00828426
5476.00   0.62697151   0.00833936
5478.00   0.63040543   0.00841423
5480.00   0.63079977   0.00832738
5482.00   0.62719709   0.00817303
5484.00   0.62370047   0.00798631
5486.00   0.61823949   0.00766621
5488.00   0.61450031   0.00735572
5490.00   0.61932093   0.00719661
5492.00   0.63389468   0.00713869
5494.00   0.62842596   0.00707321
5496.00   0.59983572   0.00702627
5498.00   0.58619633   0.00701620
5500.00   0.58967075   0.00708220
5502.00   0.59678647   0.00727257
5504.00   0.59788752   0.00747714
5506.00   0.60052636   0.00762474
5508.00   0.60007578   0.00754962
5510.00   0.59453061   0.00709724
5512.00   0.59253627   0.00698580
5514.00   0.59870163   0.00721569
5516.00   0.60266289   0.00743957
5518.00   0.59883514   0.00731982
5520.00   0.59605044   0.00694042
5522.00   0.60200655   0.00693244
5524.00   0.61550921   0.00717826
5526.00   0.62394130   0.00743578
5528.00   0.63324192   0.00789816
5530.00   0.64172110   0.00801524
5532.00   0.64755327   0.00757313
5534.00   0.65384722   0.00694422
5536.00   0.66223589   0.00704631
5538.00   0.67641845   0.00780684
5540.00   0.67345843   0.00777415
5542.00   0.64943069   0.00700809
5544.00   0.63528031   0.00652873
5546.00   0.63423818   0.00648371
5548.00   0.63611227   0.00656488
5550.00   0.63913974   0.00660410
5552.00   0.64939192   0.00670644
5554.00   0.64912328   0.00666708
5556.00   0.63839155   0.00645925
5558.00   0.63304812   0.00637420
5560.00   0.63274279   0.00639224
5562.00   0.63634545   0.00642796
5564.00   0.64214799   0.00639243
5566.00   0.64912406   0.00629019
5568.00   0.65216139   0.00659893
5570.00   0.65551341   0.00711783
5572.00   0.65171435   0.00781661
5574.00   0.64164576   0.00904910
5576.00   0.62761602   0.00981304
5578.00   0.60721308   0.00962028
5580.00   0.58269399   0.00880477
5582.00   0.56518447   0.00810315
5584.00   0.55338472   0.00683829
5586.00   0.53841141   0.00623483
5588.00   0.51710586   0.00651272
5590.00   0.50053652   0.00682245
5592.00   0.50004819   0.00685568
5594.00   0.50739895   0.00679541
5596.00   0.50438906   0.00658594
5598.00   0.49900433   0.00591660
5600.00   0.49149212   0.00581757
5602.00   0.47711296   0.00633068
5604.00   0.46707137   0.00668338
5606.00   0.46590361   0.00664804
5608.00   0.46886410   0.00638093
5610.00   0.46982256   0.00614404
5612.00   0.47100440   0.00579141
5614.00   0.47264779   0.00566092
5616.00   0.47387607   0.00574603
5618.00   0.47705530   0.00577924
5620.00   0.48610698   0.00575057
5622.00   0.49277030   0.00573085
5624.00   0.48682398   0.00574464
5626.00   0.47026652   0.00575472
5628.00   0.45938714   0.00571608
5630.00   0.44626902   0.00561412
5632.00   0.44044797   0.00557273
5634.00   0.44166748   0.00556299
5636.00   0.44506361   0.00557026
5638.00   0.44785027   0.00558204
5640.00   0.45279776   0.00559479
5642.00   0.45850427   0.00569343
5644.00   0.46665107   0.00596677
5646.00   0.46823330   0.00601472
5648.00   0.46346784   0.00581724
5650.00   0.46021689   0.00564821
5652.00   0.46016929   0.00563627
5654.00   0.46131086   0.00570286
5656.00   0.45866190   0.00575091
5658.00   0.44906536   0.00579464
5660.00   0.45158760   0.00588036
5662.00   0.46502720   0.00591953
5664.00   0.47661017   0.00615267
5666.00   0.48785250   0.00670858
5668.00   0.49779323   0.00708196
5670.00   0.49705763   0.00694016
5672.00   0.48416595   0.00646870
5674.00   0.48305659   0.00644267
5676.00   0.48487118   0.00658275
5678.00   0.49445394   0.00690475
5680.00   0.51580918   0.00761243
5682.00   0.53615680   0.00824088
5684.00   0.54591826   0.00849608
5686.00   0.54790288   0.00851727
5688.00   0.54963094   0.00845445
5690.00   0.54979347   0.00820475
5692.00   0.54827914   0.00795561
5694.00   0.54048109   0.00760420
5696.00   0.53335784   0.00734403
5698.00   0.53338584   0.00716002
5700.00   0.53423253   0.00691681
5702.00   0.53005007   0.00674168
5704.00   0.52554080   0.00658236
5706.00   0.51941472   0.00651014
5708.00   0.50959894   0.00655504
5710.00   0.49949753   0.00667878
5712.00   0.49031663   0.00672160
5714.00   0.48178023   0.00664528
5716.00   0.47930665   0.00640901
5718.00   0.48388600   0.00584178
5720.00   0.48655184   0.00559947
5722.00   0.49259453   0.00547411
5724.00   0.49407907   0.00559047
5726.00   0.48977903   0.00606931
5728.00   0.48136678   0.00651033
5730.00   0.47634570   0.00652095
5732.00   0.47434974   0.00631454
5734.00   0.46804090   0.00619976
5736.00   0.45621015   0.00605237
5738.00   0.45202798   0.00584866
5740.00   0.45231225   0.00568520
5742.00   0.44887479   0.00556788
5744.00   0.44792898   0.00541101
5746.00   0.45261802   0.00528271
5748.00   0.45108065   0.00523193
5750.00   0.44460276   0.00525137
5752.00   0.43946819   0.00524743
5754.00   0.43263407   0.00515512
5756.00   0.42919409   0.00522529
5758.00   0.43712728   0.00567882
5760.00   0.44853063   0.00632040
5762.00   0.43963434   0.00647550
5764.00   0.41144866   0.00621984
5766.00   0.40026468   0.00615487
5768.00   0.39544320   0.00619332
5770.00   0.39805542   0.00614492
5772.00   0.41121340   0.00594972
5774.00   0.42277505   0.00575038
5776.00   0.42513044   0.00562598
5778.00   0.42298983   0.00550238
5780.00   0.42874068   0.00565705
5782.00   0.44295426   0.00608476
5784.00   0.44993001   0.00639928
5786.00   0.45146647   0.00690747
5788.00   0.45084491   0.00738881
5790.00   0.44590703   0.00723908
5792.00   0.43951419   0.00643657
5794.00   0.43769412   0.00606183
5796.00   0.44368163   0.00574293
5798.00   0.43331471   0.00574792
5800.00   0.40248784   0.00625648
5802.00   0.38409448   0.00658717
5804.00   0.39475070   0.00631162
5806.00   0.42141096   0.00561942
5808.00   0.42689219   0.00537694
5810.00   0.41780177   0.00542323
5812.00   0.41905963   0.00538443
5814.00   0.42910004   0.00532477
5816.00   0.43533738   0.00532294
5818.00   0.43485869   0.00537361
5820.00   0.43305744   0.00544715
5822.00   0.43230668   0.00548618
5824.00   0.42888366   0.00550120
5826.00   0.42851090   0.00560862
5828.00   0.43184708   0.00579069
5830.00   0.43336102   0.00596050
5832.00   0.42827873   0.00626289
5834.00   0.42306377   0.00641125
5836.00   0.42537330   0.00617858
5838.00   0.43119733   0.00574345
5840.00   0.43729505   0.00560263
5842.00   0.44692665   0.00559039
5844.00   0.45258635   0.00563236
5846.00   0.45695302   0.00595110
5848.00   0.46377850   0.00632462
5850.00   0.46647875   0.00651840
5852.00   0.46879877   0.00664446
5854.00   0.47652401   0.00655008
5856.00   0.48936933   0.00602253
5858.00   0.49483098   0.00582108
5860.00   0.49855095   0.00598541
5862.00   0.49874620   0.00625739
5864.00   0.49220552   0.00643512
5866.00   0.48507227   0.00656037
5868.00   0.48982179   0.00651842
5870.00   0.50640203   0.00623733
5872.00   0.51874286   0.00609587
5874.00   0.53158209   0.00600832
5876.00   0.54141137   0.00599067
5878.00   0.54905343   0.00576914
5880.00   0.55681291   0.00578125
5882.00   0.57054204   0.00668633
5884.00   0.59158736   0.00812387
5886.00   0.61027053   0.00947911
5888.00   0.63632271   0.01138286
5890.00   0.64708972   0.01224508
5892.00   0.64059606   0.01249467
5894.00   0.63290852   0.01229949
5896.00   0.63601357   0.01143971
5898.00   0.64513946   0.00978702
5900.00   0.65412000   0.00864095
5902.00   0.66734123   0.00753443
5904.00   0.67571369   0.00670348
5906.00   0.68091965   0.00641729
5908.00   0.68703264   0.00637123
5910.00   0.69124609   0.00641330
5912.00   0.69409123   0.00656655
5914.00   0.70249352   0.00657195
5916.00   0.72161424   0.00649022
5918.00   0.72070697   0.00647601
5920.00   0.70858121   0.00654025
5922.00   0.68214595   0.00656400
5924.00   0.63365242   0.00641723
5926.00   0.57747012   0.00617725
5928.00   0.54328769   0.00618123
5930.00   0.51025483   0.00647318
5932.00   0.51912388   0.00668532
5934.00   0.57369217   0.00704492
5936.00   0.62847170   0.00705466
5938.00   0.68768460   0.00677633
5940.00   0.74282071   0.00648692
5942.00   0.77636713   0.00633333
5944.00   0.79258794   0.00626649
5946.00   0.80183223   0.00637825
5948.00   0.80005255   0.00687293
5950.00   0.79141250   0.00691565
5952.00   0.76669350   0.00657623
5954.00   0.74164167   0.00626860
5956.00   0.73066249   0.00614197
5958.00   0.72842970   0.00608113
5960.00   0.71116972   0.00617261
5962.00   0.67796943   0.00657219
5964.00   0.65746471   0.00665680
5966.00   0.64731628   0.00641538
5968.00   0.64311180   0.00613350
5970.00   0.64114764   0.00604337
5972.00   0.64030993   0.00602549
5974.00   0.63862997   0.00596202
5976.00   0.64107561   0.00595070
5978.00   0.63544112   0.00589093
5980.00   0.61935166   0.00574843
5982.00   0.60611081   0.00561435
5984.00   0.59957713   0.00556497
5986.00   0.59656104   0.00555341
5988.00   0.59714746   0.00554361
5990.00   0.60564756   0.00556305
5992.00   0.60523915   0.00560520
5994.00   0.59967893   0.00567392
5996.00   0.59311867   0.00575581
5998.00   0.58401337   0.00587382
6000.00   0.57260653   0.00593685
6002.00   0.56546128   0.00598589
6004.00   0.56311628   0.00618446
6006.00   0.56014419   0.00616401
6008.00   0.55821836   0.00581813
6010.00   0.55698922   0.00571747
6012.00   0.55537704   0.00615361
6014.00   0.55351838   0.00654998
6016.00   0.55463895   0.00638030
6018.00   0.55659369   0.00581849
6020.00   0.55905914   0.00553564
6022.00   0.56142193   0.00525681
6024.00   0.56707397   0.00515501
6026.00   0.57639953   0.00526248
6028.00   0.58645189   0.00549044
6030.00   0.59679687   0.00584410
6032.00   0.60778993   0.00628787
6034.00   0.60960799   0.00634193
6036.00   0.60386699   0.00607387
6038.00   0.59222272   0.00583920
6040.00   0.56781039   0.00544007
6042.00   0.55115250   0.00514768
6044.00   0.54324979   0.00507490
6046.00   0.53981027   0.00510862
6048.00   0.54087415   0.00513664
6050.00   0.55117920   0.00523485
6052.00   0.55397630   0.00523451
6054.00   0.55464643   0.00515668
6056.00   0.55102426   0.00511849
6058.00   0.54285085   0.00506212
6060.00   0.53659441   0.00497729
6062.00   0.53712398   0.00496076
6064.00   0.54203415   0.00500083
6066.00   0.54241320   0.00496680
6068.00   0.54075330   0.00481652
6070.00   0.53918765   0.00482116
6072.00   0.53653723   0.00501702
6074.00   0.53436944   0.00520338
6076.00   0.53206345   0.00525592
6078.00   0.52878660   0.00524754
6080.00   0.53098282   0.00516736
6082.00   0.53810099   0.00491443
6084.00   0.54210749   0.00479358
6086.00   0.54430220   0.00471875
6088.00   0.54889715   0.00478869
6090.00   0.55401948   0.00509558
6092.00   0.55958477   0.00550387
6094.00   0.56313506   0.00563276
6096.00   0.56556424   0.00562861
6098.00   0.56353351   0.00553637
6100.00   0.55353236   0.00519118
6102.00   0.54898456   0.00498913
6104.00   0.55367115   0.00506662
6106.00   0.56030390   0.00525739
6108.00   0.56056166   0.00538685
6110.00   0.55874607   0.00554343
6112.00   0.56342182   0.00560675
6114.00   0.57545543   0.00562108
6116.00   0.58144847   0.00557300
6118.00   0.58569902   0.00543466
6120.00   0.58802810   0.00529012
6122.00   0.58573601   0.00520233
6124.00   0.58170995   0.00515666
6126.00   0.58076999   0.00510795
6128.00   0.58048922   0.00507190
6130.00   0.57893088   0.00502883
6132.00   0.57741499   0.00497265
6134.00   0.57953280   0.00495344
6136.00   0.58388066   0.00496344
6138.00   0.59159863   0.00496816
6140.00   0.60268036   0.00515846
6142.00   0.62205589   0.00567291
6144.00   0.62713534   0.00580263
6146.00   0.61606389   0.00560582
6148.00   0.61177260   0.00540735
6150.00   0.61769941   0.00526338
6152.00   0.62893867   0.00517664
6154.00   0.64269447   0.00532090
6156.00   0.66188356   0.00568209
6158.00   0.66876647   0.00576791
6160.00   0.66696864   0.00572699
6162.00   0.66318160   0.00561774
6164.00   0.65195519   0.00529679
6166.00   0.64497042   0.00507366
6168.00   0.65188026   0.00520775
6170.00   0.66660759   0.00540950
6172.00   0.66819197   0.00557524
6174.00   0.65785655   0.00585829
6176.00   0.65548816   0.00604329
6178.00   0.65900189   0.00599922
6180.00   0.66682559   0.00583618
6182.00   0.67420146   0.00557328
6184.00   0.68107015   0.00509958
6186.00   0.67853478   0.00487634
6188.00   0.66484430   0.00479887
6190.00   0.65573758   0.00487804
6192.00   0.64864728   0.00519865
6194.00   0.64464095   0.00541411
6196.00   0.64114058   0.00549978
6198.00   0.63676888   0.00545736
6200.00   0.63350576   0.00529642
6202.00   0.63342848   0.00501250
6204.00   0.62846416   0.00488224
6206.00   0.61645007   0.00482574
6208.00   0.60972297   0.00478590
6210.00   0.61145213   0.00481420
6212.00   0.61498249   0.00485384
6214.00   0.61296171   0.00496280
6216.00   0.60499212   0.00528347
6218.00   0.60315424   0.00527571
6220.00   0.60364652   0.00494497
6222.00   0.60839176   0.00472228
6224.00   0.61709514   0.00467506
6226.00   0.62367702   0.00473132
6228.00   0.62307763   0.00483235
6230.00   0.61752817   0.00491875
6232.00   0.62231156   0.00512665
6234.00   0.63667676   0.00563109
6236.00   0.64620021   0.00578498
6238.00   0.65219837   0.00545740
6240.00   0.65605643   0.00504529
6242.00   0.66170818   0.00497424
6244.00   0.66870722   0.00503916
6246.00   0.67417231   0.00497691
6248.00   0.67741057   0.00487203
6250.00   0.68519586   0.00483244
6252.00   0.69834825   0.00479057
6254.00   0.70972311   0.00482287
6256.00   0.71905324   0.00494010
6258.00   0.72448012   0.00511875
6260.00   0.72012389   0.00539462
6262.00   0.70226043   0.00591173
6264.00   0.70612913   0.00593208
6266.00   0.73127481   0.00541912
6268.00   0.74557793   0.00511979
6270.00   0.74857903   0.00516408
6272.00   0.74818113   0.00537873
6274.00   0.75337976   0.00568797
6276.00   0.76470712   0.00618769
6278.00   0.76212308   0.00612339
6280.00   0.74408841   0.00542067
6282.00   0.73547497   0.00503508
6284.00   0.73539293   0.00491703
6286.00   0.73214194   0.00488788
6288.00   0.72456253   0.00484692
6290.00   0.71733302   0.00487688
6292.00   0.71117702   0.00522013
6294.00   0.70475149   0.00587295
6296.00   0.70016995   0.00626827
6298.00   0.69879425   0.00670475
6300.00   0.69570330   0.00689527
6302.00   0.68994415   0.00662616
6304.00   0.68160352   0.00605632
6306.00   0.67636204   0.00565707
6308.00   0.67590621   0.00523145
6310.00   0.67301235   0.00492922
6312.00   0.66955769   0.00474185
6314.00   0.66234669   0.00462531
6316.00   0.65042388   0.00457283
6318.00   0.63918722   0.00464698
6320.00   0.63884881   0.00492312
6322.00   0.65148041   0.00548340
6324.00   0.64943314   0.00568184
6326.00   0.63486999   0.00580102
6328.00   0.62528738   0.00563061
6330.00   0.62443915   0.00504016
6332.00   0.62985572   0.00442093
6334.00   0.63473091   0.00427143
6336.00   0.63987777   0.00444928
6338.00   0.64196137   0.00444369
6340.00   0.64126506   0.00438015
6342.00   0.64244273   0.00440040
6344.00   0.64456496   0.00448949
6346.00   0.64325219   0.00462291
6348.00   0.63995242   0.00485016
6350.00   0.63532665   0.00517910
6352.00   0.63328621   0.00523789
6354.00   0.63484743   0.00506909
6356.00   0.63715634   0.00499738
6358.00   0.64077836   0.00495740
6360.00   0.63926572   0.00490292
6362.00   0.63571724   0.00495294
6364.00   0.63049078   0.00504181
6366.00   0.62628916   0.00493316
6368.00   0.62077057   0.00463366
6370.00   0.62510207   0.00448931
6372.00   0.64151126   0.00440028
6374.00   0.65299624   0.00438933
6376.00   0.65915820   0.00447900
6378.00   0.66106427   0.00457265
6380.00   0.65938476   0.00460963
6382.00   0.65294683   0.00460950
6384.00   0.64888692   0.00456712
6386.00   0.64304072   0.00442979
6388.00   0.64182997   0.00438738
6390.00   0.64268085   0.00439322
6392.00   0.64662072   0.00440631
6394.00   0.65686104   0.00441894
6396.00   0.67313915   0.00442046
6398.00   0.68284017   0.00448874
6400.00   0.68973088   0.00464988
6402.00   0.69386476   0.00474095
6404.00   0.69595042   0.00476561
6406.00   0.69647402   0.00477469
6408.00   0.69552517   0.00478443
6410.00   0.69358665   0.00471997
6412.00   0.69145313   0.00473987
6414.00   0.68793970   0.00488660
6416.00   0.68765593   0.00498207
6418.00   0.68981722   0.00507003
6420.00   0.69302663   0.00507681
6422.00   0.69585139   0.00497154
6424.00   0.69919029   0.00474943
6426.00   0.70573401   0.00459388
6428.00   0.71456721   0.00449756
6430.00   0.71924135   0.00444385
6432.00   0.72020581   0.00445910
6434.00   0.72354460   0.00445030
6436.00   0.72638968   0.00444889
6438.00   0.73006418   0.00446402
6440.00   0.73837227   0.00449023
6442.00   0.74851412   0.00452035
6444.00   0.75907534   0.00453095
6446.00   0.77578986   0.00439344
6448.00   0.78382412   0.00455071
6450.00   0.77826831   0.00506016
6452.00   0.77192038   0.00548260
6454.00   0.77340725   0.00561870
6456.00   0.77706715   0.00557595
6458.00   0.78559393   0.00544854
6460.00   0.80265588   0.00507352
6462.00   0.81542328   0.00489803
6464.00   0.82314065   0.00490670
6466.00   0.83227354   0.00492822
6468.00   0.84593040   0.00485292
6470.00   0.85795993   0.00474909
6472.00   0.86579281   0.00471330
6474.00   0.87155017   0.00471677
6476.00   0.87737605   0.00471813
6478.00   0.88158590   0.00473038
6480.00   0.88624352   0.00474956
6482.00   0.89008492   0.00479792
6484.00   0.89259976   0.00486127
6486.00   0.90055203   0.00487383
6488.00   0.91562504   0.00484620
6490.00   0.93019709   0.00488257
6492.00   0.94861886   0.00495299
6494.00   0.96300635   0.00502988
6496.00   0.97436181   0.00518543
6498.00   0.98514989   0.00533250
6500.00   0.99743327   0.00533096
6502.00   1.01100925   0.00521402
6504.00   1.02417973   0.00518446
6506.00   1.03768650   0.00519659
6508.00   1.05034098   0.00519082
6510.00   1.05979180   0.00514601
6512.00   1.07337540   0.00512857
6514.00   1.09595615   0.00519682
6516.00   1.12331867   0.00530780
6518.00   1.14585364   0.00534135
6520.00   1.16646641   0.00524932
6522.00   1.18642884   0.00539757
6524.00   1.19722128   0.00583551
6526.00   1.22274888   0.00612749
6528.00   1.26893878   0.00618365
6530.00   1.32838506   0.00610634
6532.00   1.38917977   0.00597938
6534.00   1.45067340   0.00548816
6536.00   1.53292817   0.00577471
6538.00   1.63524991   0.00688757
6540.00   1.74371165   0.00748712
6542.00   1.85395718   0.00746006
6544.00   1.97095865   0.00718467
6546.00   2.10388482   0.00703713
6548.00   2.25245357   0.00676207
6550.00   2.39402640   0.00684790
6552.00   2.54582608   0.00717127
6554.00   2.67550457   0.00766711
6556.00   2.77389264   0.00841029
6558.00   2.88253224   0.00880529
6560.00   3.02400625   0.00865600
6562.00   3.18343616   0.00822064
6564.00   3.33441234   0.00853901
6566.00   3.48875356   0.00961049
6568.00   3.63618433   0.00992968
6570.00   3.77733564   0.00956931
6572.00   3.91951621   0.00927324
6574.00   4.06460547   0.00950089
6576.00   4.21288955   0.01013981
6578.00   4.35341549   0.01038527
6580.00   4.48595214   0.01035291
6582.00   4.61336422   0.01032757
6584.00   4.72833920   0.01026896
6586.00   4.85747576   0.01018235
6588.00   5.00546479   0.01014323
6590.00   5.15223241   0.01032328
6592.00   5.27551198   0.01047619
6594.00   5.39696860   0.01043718
6596.00   5.44701433   0.01097376
6598.00   5.42758369   0.01227273
6600.00   5.39624476   0.01282881
6602.00   5.32337999   0.01280087
6604.00   5.28567743   0.01261466
6606.00   5.35158467   0.01202604
6608.00   5.49489355   0.01078529
6610.00   5.51041484   0.01031290
6612.00   5.46516848   0.01053040
6614.00   5.36390758   0.01039774
6616.00   5.19168377   0.01005264
6618.00   4.99618220   0.00985728
6620.00   4.78477645   0.00991698
6622.00   4.55109763   0.01025257
6624.00   4.35203314   0.01032154
6626.00   4.17275035   0.01027614
6628.00   3.99292445   0.01005859
6630.00   3.82019162   0.00964831
6632.00   3.64981234   0.00921834
6634.00   3.47385275   0.00881459
6636.00   3.29613888   0.00844850
6638.00   3.13606417   0.00838329
6640.00   2.99233091   0.00873376
6642.00   2.84230840   0.00879053
6644.00   2.67707551   0.00871646
6646.00   2.54156351   0.00856549
6648.00   2.44385421   0.00839044
6650.00   2.36396742   0.00820689
6652.00   2.28085446   0.00781702
6654.00   2.20674372   0.00704602
6656.00   2.11747497   0.00660043
6658.00   2.00982434   0.00630351
6660.00   1.91736025   0.00618822
6662.00   1.83902091   0.00633588
6664.00   1.76955366   0.00645985
6666.00   1.70617145   0.00645651
6668.00   1.64690292   0.00651447
6670.00   1.58954728   0.00637527
6672.00   1.53570217   0.00596890
6674.00   1.48722577   0.00569225
6676.00   1.44058895   0.00552229
6678.00   1.39584833   0.00540667
6680.00   1.35846406   0.00535213
6682.00   1.32699645   0.00544164
6684.00   1.28933364   0.00570480
6686.00   1.24632871   0.00626658
6688.00   1.21445739   0.00633566
6690.00   1.19302279   0.00596793
6692.00   1.16880500   0.00564667
6694.00   1.14165747   0.00550595
6696.00   1.11824560   0.00545286
6698.00   1.10374439   0.00532707
6700.00   1.09743667   0.00512930
6702.00   1.08562660   0.00506713
6704.00   1.07249385   0.00514676
6706.00   1.05839831   0.00518596
6708.00   1.04191527   0.00517897
6710.00   1.02764350   0.00514617
6712.00   1.01958874   0.00506065
6714.00   1.01537198   0.00488646
6716.00   1.00760794   0.00480371
6718.00   0.99862072   0.00478549
6720.00   0.99003842   0.00475826
6722.00   0.98088962   0.00471119
6724.00   0.96915421   0.00467038
6726.00   0.95392108   0.00463937
6728.00   0.93503970   0.00457271
6730.00   0.92047209   0.00472717
6732.00   0.91158238   0.00525354
6734.00   0.89697310   0.00537012
6736.00   0.87414098   0.00503927
6738.00   0.85137668   0.00463841
6740.00   0.83570677   0.00445709
6742.00   0.82318527   0.00436720
6744.00   0.80607417   0.00429108
6746.00   0.78359625   0.00429032
6748.00   0.77162525   0.00427565
6750.00   0.76922756   0.00423555
6752.00   0.76606852   0.00426350
6754.00   0.76412401   0.00441937
6756.00   0.76182655   0.00453766
6758.00   0.75109378   0.00446848
6760.00   0.73352429   0.00427130
6762.00   0.71799502   0.00422076
6764.00   0.69841474   0.00428981
6766.00   0.68427199   0.00426879
6768.00   0.67683882   0.00418020
6770.00   0.67410618   0.00410607
6772.00   0.67322341   0.00407499
6774.00   0.67448935   0.00404564
6776.00   0.67230061   0.00410347
6778.00   0.66992062   0.00428895
6780.00   0.66352582   0.00441156
6782.00   0.64962223   0.00446070
6784.00   0.63840625   0.00439929
6786.00   0.63560253   0.00433012
6788.00   0.63702184   0.00424421
6790.00   0.63356474   0.00413471
6792.00   0.62661698   0.00397692
6794.00   0.62290952   0.00390642
6796.00   0.62094876   0.00389093
6798.00   0.62102869   0.00389077
6800.00   0.62324816   0.00391635
6802.00   0.62684819   0.00395055
6804.00   0.63012743   0.00404941
6806.00   0.63544425   0.00427873
6808.00   0.63409290   0.00436208
6810.00   0.62409085   0.00437130
6812.00   0.61954626   0.00432392
6814.00   0.62051877   0.00417412
6816.00   0.62181404   0.00396598
6818.00   0.62315938   0.00389634
6820.00   0.62495697   0.00388553
6822.00   0.62852907   0.00399639
6824.00   0.63495547   0.00433696
6826.00   0.64040405   0.00450008
6828.00   0.64451960   0.00443119
6830.00   0.64426926   0.00427282
6832.00   0.63970038   0.00420572
6834.00   0.63263434   0.00415619
6836.00   0.63384968   0.00413985
6838.00   0.64475811   0.00419993
6840.00   0.64689943   0.00420300
6842.00   0.64107472   0.00407113
6844.00   0.63538411   0.00401122
6846.00   0.63211185   0.00419052
6848.00   0.62860295   0.00443644
6850.00   0.62915045   0.00444501
6852.00   0.63483012   0.00427306
6854.00   0.63920921   0.00419075
6856.00   0.64310613   0.00399579
6858.00   0.64732185   0.00409015
6860.00   0.65672871   0.00458580
6862.00   0.66064134   0.00503298
6864.00   0.64337242   0.00515425
6866.00   0.60012317   0.00509959
6868.00   0.59343261   0.00511528
6870.00   0.61646757   0.00514031
6872.00   0.63264459   0.00514558
6874.00   0.64078897   0.00504483
6876.00   0.64108595   0.00483899
6878.00   0.63545594   0.00461622
6880.00   0.62363297   0.00430437
6882.00   0.61663386   0.00414791
6884.00   0.61055616   0.00411396
6886.00   0.60542944   0.00411201
6888.00   0.60123396   0.00417162
6890.00   0.60103297   0.00422317
6892.00   0.60447243   0.00422092
6894.00   0.61069995   0.00419587
6896.00   0.60902637   0.00417137
6898.00   0.59886751   0.00412587
6900.00   0.59309131   0.00409632
6902.00   0.59063900   0.00406767
6904.00   0.59074178   0.00406663
6906.00   0.59217390   0.00412527
6908.00   0.59491664   0.00422565
6910.00   0.59253693   0.00422453
6912.00   0.58452594   0.00402038
6914.00   0.58003828   0.00413474
6916.00   0.57572237   0.00463973
6918.00   0.57467458   0.00491546
6920.00   0.57910630   0.00480182
6922.00   0.58652639   0.00450336
6924.00   0.58904460   0.00429722
6926.00   0.58855408   0.00403730
6928.00   0.58948880   0.00404381
6930.00   0.59229568   0.00443244
6932.00   0.59054515   0.00449046
6934.00   0.58465189   0.00425149
6936.00   0.58087450   0.00404792
6938.00   0.57965863   0.00401430
6940.00   0.57764515   0.00408783
6942.00   0.57733068   0.00409901
6944.00   0.57861766   0.00410412
6946.00   0.58120897   0.00408036
6948.00   0.58543426   0.00406274
6950.00   0.58780986   0.00403530
6952.00   0.58654976   0.00397343
6954.00   0.58341545   0.00389875
6956.00   0.58033115   0.00387296
6958.00   0.57430050   0.00388722
6960.00   0.57328248   0.00388139
6962.00   0.57902548   0.00385202
6964.00   0.58192903   0.00385064
6966.00   0.57740289   0.00390480
6968.00   0.57003221   0.00399539
6970.00   0.57395551   0.00408261
6972.00   0.59204444   0.00423501
6974.00   0.60045117   0.00428975
6976.00   0.60366207   0.00421723
6978.00   0.60546979   0.00424053
6980.00   0.60845929   0.00444773
6982.00   0.61259982   0.00455131
6984.00   0.62126797   0.00448106
6986.00   0.63647884   0.00439714
6988.00   0.64394704   0.00435416
6990.00   0.64461535   0.00433045
6992.00   0.64826903   0.00426961
6994.00   0.65606609   0.00419153
6996.00   0.66711348   0.00412075
6998.00   0.67843795   0.00407442
7000.00   0.68885028   0.00406570
7002.00   0.69637108   0.00434591
7004.00   0.70033619   0.00503921
7006.00   0.70924595   0.00519810
7008.00   0.72141814   0.00489524
7010.00   0.73118657   0.00462172
7012.00   0.74112549   0.00458159
7014.00   0.74983603   0.00459403
7016.00   0.75021678   0.00449815
7018.00   0.74100792   0.00429092
7020.00   0.74037090   0.00432837
7022.00   0.74742714   0.00452414
7024.00   0.75078952   0.00479844
7026.00   0.74668086   0.00524218
7028.00   0.73726469   0.00564237
7030.00   0.73033229   0.00569536
7032.00   0.72088331   0.00555987
7034.00   0.72025985   0.00536313
7036.00   0.73116046   0.00482023
7038.00   0.73513517   0.00455398
7040.00   0.72741389   0.00486770
7042.00   0.72277686   0.00517456
7044.00   0.72765532   0.00500166
7046.00   0.73451394   0.00453894
7048.00   0.73517391   0.00433957
7050.00   0.73073918   0.00426985
7052.00   0.72911668   0.00420117
7054.00   0.72823668   0.00418775
7056.00   0.72761795   0.00419322
7058.00   0.72569397   0.00419290
7060.00   0.72411364   0.00419310
7062.00   0.72714263   0.00420286
7064.00   0.73421341   0.00422992
7066.00   0.73978221   0.00424452
7068.00   0.74721321   0.00424811
7070.00   0.75304824   0.00424767
7072.00   0.75345990   0.00424394
7074.00   0.75103912   0.00423546
7076.00   0.75314766   0.00423961
7078.00   0.75670552   0.00425206
7080.00   0.76248726   0.00428349
7082.00   0.76910585   0.00430127
7084.00   0.78060403   0.00437192
7086.00   0.79951617   0.00459054
7088.00   0.81931326   0.00484727
7090.00   0.83010590   0.00485018
7092.00   0.83409891   0.00461346
7094.00   0.83974776   0.00458255
7096.00   0.84159419   0.00470570
7098.00   0.84889239   0.00471147
7100.00   0.86299005   0.00461933
7102.00   0.87601608   0.00454645
7104.00   0.88264513   0.00451475
7106.00   0.88431972   0.00450280
7108.00   0.88408586   0.00449448
7110.00   0.88431227   0.00451465
7112.00   0.87518671   0.00449650
7114.00   0.85228291   0.00442217
7116.00   0.82945204   0.00437193
7118.00   0.81308964   0.00439539
7120.00   0.79673198   0.00450550
7122.00   0.78136200   0.00459959
7124.00   0.76924476   0.00472402
7126.00   0.75687206   0.00467706
7128.00   0.74331990   0.00444423
7130.00   0.72998726   0.00429295
7132.00   0.71774462   0.00419368
7134.00   0.70680752   0.00419343
7136.00   0.69944042   0.00435936
7138.00   0.69625020   0.00466135
7140.00   0.68869931   0.00471478
7142.00   0.67755520   0.00461197
7144.00   0.66797185   0.00449802
7146.00   0.66130522   0.00429227
7148.00   0.65656143   0.00411472
7150.00   0.64989111   0.00403815
7152.00   0.64274070   0.00402094
7154.00   0.64067400   0.00400770
7156.00   0.64701724   0.00404519
7158.00   0.64474928   0.00404668
7160.00   0.63493779   0.00398126
7162.00   0.62361184   0.00397275
7164.00   0.61436644   0.00416009
7166.00   0.60604927   0.00448049
7168.00   0.60405433   0.00452866
7170.00   0.60889018   0.00434765
7172.00   0.61266318   0.00427721
7174.00   0.61804587   0.00429820
7176.00   0.62101758   0.00431736
7178.00   0.62037584   0.00425727
7180.00   0.61679637   0.00414770
7182.00   0.61445668   0.00418131
7184.00   0.61049917   0.00439597
7186.00   0.61334941   0.00445468
7188.00   0.62537581   0.00433475
7190.00   0.63251445   0.00429348
7192.00   0.63031128   0.00451475
7194.00   0.62593877   0.00486255
7196.00   0.63077232   0.00494039
7198.00   0.64122850   0.00475445
7200.00   0.65555537   0.00462851
7202.00   0.68156192   0.00438165
7204.00   0.69700965   0.00430654
7206.00   0.69915879   0.00437361
7208.00   0.69735938   0.00449159
7210.00   0.70289710   0.00466556
7212.00   0.71458280   0.00496641
7214.00   0.72028744   0.00502924
7216.00   0.72225589   0.00493762
7218.00   0.72456449   0.00478243
7220.00   0.72670731   0.00451881
7222.00   0.72887823   0.00432255
7224.00   0.73423633   0.00427134
7226.00   0.74153316   0.00432745
7228.00   0.74164906   0.00434334
7230.00   0.73400083   0.00434032
7232.00   0.73288736   0.00440417
7234.00   0.73614168   0.00452864
7236.00   0.74051094   0.00468544
7238.00   0.74621427   0.00488701
7240.00   0.75121811   0.00508269
7242.00   0.75060558   0.00523629
7244.00   0.74491310   0.00548104
7246.00   0.74341074   0.00545299
7248.00   0.74496171   0.00507613
7250.00   0.74350214   0.00479817
7252.00   0.73979571   0.00476592
7254.00   0.73844212   0.00485045
7256.00   0.74050319   0.00486027
7258.00   0.74596789   0.00482523
7260.00   0.74659786   0.00474450
7262.00   0.74224547   0.00455807
7264.00   0.74188495   0.00447294
7266.00   0.74683931   0.00442287
7268.00   0.74992046   0.00445965
7270.00   0.74659488   0.00467291
7272.00   0.73763818   0.00503656
7274.00   0.73497286   0.00518941
7276.00   0.73389298   0.00526663
7278.00   0.73921520   0.00524223
7280.00   0.75456443   0.00508458
7282.00   0.76359004   0.00491179
7284.00   0.75852546   0.00475009
7286.00   0.74784455   0.00457113
7288.00   0.74514005   0.00465532
7290.00   0.74271053   0.00512316
7292.00   0.74664491   0.00523981
7294.00   0.76246884   0.00508314
7296.00   0.77222094   0.00487367
7298.00   0.76964253   0.00469872
7300.00   0.76588738   0.00452343
7302.00   0.77276179   0.00449674
7304.00   0.78795695   0.00462489
7306.00   0.79589081   0.00469264
7308.00   0.79868448   0.00471046
7310.00   0.80457795   0.00485472
7312.00   0.81527525   0.00514416
7314.00   0.82536513   0.00535738
7316.00   0.83083773   0.00545118
7318.00   0.83393458   0.00554177
7320.00   0.83455050   0.00544955
7322.00   0.82954052   0.00507928
7324.00   0.82820225   0.00485357
7326.00   0.83351597   0.00467294
7328.00   0.83739737   0.00460839
7330.00   0.83048034   0.00489453
7332.00   0.81990442   0.00545725
7334.00   0.82597557   0.00560734
7336.00   0.84925678   0.00551347
7338.00   0.85777539   0.00546990
7340.00   0.85766611   0.00544806
7342.00   0.85504952   0.00533141
7344.00   0.84891385   0.00516169
7346.00   0.84324333   0.00499241
7348.00   0.84987295   0.00482870
7350.00   0.87168795   0.00462521
7352.00   0.87435481   0.00457947
7354.00   0.86025608   0.00472739
7356.00   0.84975380   0.00480109
7358.00   0.84423706   0.00473341
7360.00   0.84237421   0.00464446
7362.00   0.85038191   0.00483650
7364.00   0.87320745   0.00538786
7366.00   0.88010275   0.00561954
7368.00   0.87688088   0.00580132
7370.00   0.87408412   0.00574504
7372.00   0.87392488   0.00544460
7374.00   0.86994639   0.00507643
7376.00   0.85747638   0.00488996
7378.00   0.83908206   0.00483754
7380.00   0.82859620   0.00476291
7382.00   0.81933385   0.00472629
7384.00   0.81674156   0.00467617
7386.00   0.82713383   0.00460763
7388.00   0.83522397   0.00459612
7390.00   0.82960880   0.00469853
7392.00   0.81436381   0.00489238
7394.00   0.80332530   0.00495004
7396.00   0.79029787   0.00493056
7398.00   0.78121477   0.00489705
7400.00   0.77553731   0.00483352
7402.00   0.77269632   0.00473870
7404.00   0.76714563   0.00464379
7406.00   0.76116726   0.00456684
7408.00   0.76272020   0.00449063
7410.00   0.77148283   0.00440201
7412.00   0.77242061   0.00442428
7414.00   0.76761276   0.00459784
7416.00   0.76464751   0.00466701
7418.00   0.76285508   0.00465544
7420.00   0.76341847   0.00461710
7422.00   0.76634020   0.00456357
7424.00   0.77064168   0.00448815
7426.00   0.77048784   0.00447158
7428.00   0.76833010   0.00452127
7430.00   0.76311871   0.00452448
7432.00   0.75230709   0.00446390
7434.00   0.74369317   0.00442631
7436.00   0.73851100   0.00450450
7438.00   0.73218521   0.00471604
7440.00   0.73132446   0.00486901
7442.00   0.73596239   0.00508595
7444.00   0.74162236   0.00509408
7446.00   0.74890596   0.00492354
7448.00   0.75537187   0.00470057
7450.00   0.76100355   0.00448184
7452.00   0.76464331   0.00431814
7454.00   0.76543969   0.00434570
7456.00   0.76521388   0.00459108
7458.00   0.76281604   0.00468887
7460.00   0.75691241   0.00474861
7462.00   0.74878496   0.00475134
7464.00   0.73988381   0.00461155
7466.00   0.73555794   0.00443083
7468.00   0.73785156   0.00455388
7470.00   0.74613699   0.00495211
7472.00   0.74885339   0.00509501
7474.00   0.74997520   0.00518102
7476.00   0.74772775   0.00513796
7478.00   0.74307978   0.00487883
7480.00   0.74247015   0.00459318
7482.00   0.74479136   0.00452615
7484.00   0.74931401   0.00460579
7486.00   0.75525719   0.00458116
7488.00   0.76691309   0.00446687
7490.00   0.77086028   0.00448690
7492.00   0.76804742   0.00462246
7494.00   0.76589265   0.00474306
7496.00   0.76615393   0.00490281
7498.00   0.76829669   0.00508392
7500.00   0.77307987   0.00504738
7502.00   0.78344515   0.00480979
7504.00   0.78325394   0.00472398
7506.00   0.77495009   0.00466470
7508.00   0.76684436   0.00459072
7510.00   0.75738251   0.00466138
7512.00   0.74707356   0.00482001
7514.00   0.74081150   0.00492436
7516.00   0.73770261   0.00504404
7518.00   0.73406434   0.00520113
7520.00   0.73022681   0.00547203
7522.00   0.72802326   0.00556560
7524.00   0.72916961   0.00546943
7526.00   0.73006630   0.00528603
7528.00   0.72733071   0.00506606
7530.00   0.72429800   0.00467214
7532.00   0.72647905   0.00447926
7534.00   0.73446432   0.00436713
7536.00   0.73818251   0.00444659
7538.00   0.74277306   0.00464169
7540.00   0.74681377   0.00489796
7542.00   0.74466187   0.00535883
7544.00   0.73930016   0.00587758
7546.00   0.74551699   0.00589396
7548.00   0.76592255   0.00546195
7550.00   0.77254704   0.00524409
7552.00   0.76878500   0.00491669
7554.00   0.76468104   0.00460495
7556.00   0.76296356   0.00460700
7558.00   0.76183903   0.00474477
7560.00   0.76258743   0.00476022
7562.00   0.76438624   0.00470589
7564.00   0.76951435   0.00485769
7566.00   0.78372675   0.00525938
7568.00   0.78894278   0.00551171
7570.00   0.77735606   0.00547665
7572.00   0.75930718   0.00525610
7574.00   0.75298744   0.00513537
7576.00   0.75112340   0.00506727
7578.00   0.75143531   0.00496965
7580.00   0.75841433   0.00477771
7582.00   0.76202178   0.00469786
7584.00   0.75935674   0.00487681
7586.00   0.75338411   0.00510471
7588.00   0.75020143   0.00520671
7590.00   0.75056106   0.00538984
7592.00   0.74054199   0.00553574
7594.00   0.72090715   0.00539975
7596.00   0.70265034   0.00577080
7598.00   0.67961678   0.00672345
7600.00   0.66328478   0.00770791
7602.00   0.66205010   0.00851539
7604.00   0.67012498   0.00920141
7606.00   0.67985794   0.00942345
7608.00   0.69639009   0.00932253
7610.00   0.71147403   0.00905558
7612.00   0.73215407   0.00842737
7614.00   0.74391022   0.00771781
7616.00   0.74411747   0.00689445
7618.00   0.73665637   0.00589704
7620.00   0.71619913   0.00541023
7622.00   0.67643821   0.00546306
7624.00   0.65749043   0.00556381
7626.00   0.64821357   0.00596509
7628.00   0.64631003   0.00623482
7630.00   0.65906939   0.00634876
7632.00   0.67632833   0.00636485
7634.00   0.68474147   0.00636982
7636.00   0.69226655   0.00631364
7638.00   0.69275242   0.00634386
7640.00   0.68588096   0.00653287
7642.00   0.67787772   0.00654968
7644.00   0.66637269   0.00623618
7646.00   0.65499705   0.00578090
7648.00   0.64928761   0.00554509
7650.00   0.64674333   0.00543086
7652.00   0.64476502   0.00528238
7654.00   0.64332095   0.00512215
7656.00   0.64626023   0.00504002
7658.00   0.65391752   0.00507749
7660.00   0.66017541   0.00512686
7662.00   0.66388768   0.00507602
7664.00   0.66494963   0.00494569
7666.00   0.66443089   0.00495417
7668.00   0.66319859   0.00513152
7670.00   0.66171724   0.00516388
7672.00   0.65897456   0.00501257
7674.00   0.65186179   0.00491789
7676.00   0.63966891   0.00501769
7678.00   0.62943792   0.00512533
7680.00   0.63592917   0.00505810
7682.00   0.65758911   0.00484700
7684.00   0.67027846   0.00474103
7686.00   0.68587512   0.00465864
7688.00   0.69101259   0.00464260
7690.00   0.67895088   0.00465551
7692.00   0.66175163   0.00469740
7694.00   0.65623105   0.00481999
7696.00   0.65722483   0.00494027
7698.00   0.66953281   0.00507394
7700.00   0.70298204   0.00529400
7702.00   0.72075674   0.00543982
7704.00   0.72465101   0.00529988
7706.00   0.72312406   0.00514073
7708.00   0.72269988   0.00530568
7710.00   0.72164807   0.00558284
7712.00   0.72059503   0.00567458
7714.00   0.71724242   0.00562741
7716.00   0.71633077   0.00574491
7718.00   0.71624368   0.00604178
7720.00   0.72453675   0.00611366
7722.00   0.74120054   0.00591120
7724.00   0.75924429   0.00568184
7726.00   0.76991883   0.00546712
7728.00   0.77763256   0.00510319
7730.00   0.78210410   0.00489059
7732.00   0.78071776   0.00475470
7734.00   0.78015029   0.00485903
7736.00   0.78042424   0.00535028
7738.00   0.78141624   0.00576273
7740.00   0.78425840   0.00561826
7742.00   0.78842017   0.00499625
7744.00   0.78953785   0.00506565
7746.00   0.79557291   0.00568146
7748.00   0.78788501   0.00604679
7750.00   0.75270075   0.00639133
7752.00   0.71958050   0.00658877
7754.00   0.72250798   0.00631853
7756.00   0.74888799   0.00561594
7758.00   0.75629786   0.00544185
7760.00   0.75786731   0.00578885
7762.00   0.75802973   0.00570684
7764.00   0.75190637   0.00529558
7766.00   0.74417162   0.00498216
7768.00   0.74075282   0.00489292
7770.00   0.73974815   0.00496841
7772.00   0.73490506   0.00503845
7774.00   0.72681096   0.00519965
7776.00   0.72166803   0.00520522
7778.00   0.71867716   0.00512920
7780.00   0.71480358   0.00505026
7782.00   0.70933697   0.00492085
7784.00   0.70408586   0.00479406
7786.00   0.70287019   0.00482822
7788.00   0.70758036   0.00485384
7790.00   0.70083159   0.00516279
7792.00   0.67945918   0.00598302
7794.00   0.66734317   0.00639384
7796.00   0.66937080   0.00606802
7798.00   0.67609918   0.00536603
7800.00   0.67551100   0.00509616
7802.00   0.67009917   0.00498813
7804.00   0.66815794   0.00487162
7806.00   0.66788357   0.00478927
7808.00   0.66787001   0.00483835
7810.00   0.66647294   0.00499164
7812.00   0.66393727   0.00513036
7814.00   0.66443396   0.00517104
7816.00   0.66953188   0.00517503
7818.00   0.66560805   0.00523663
7820.00   0.65213737   0.00541307
7822.00   0.64341471   0.00538149
7824.00   0.63528603   0.00504574
7826.00   0.63671437   0.00487371
7828.00   0.65229672   0.00514204
7830.00   0.67466122   0.00548280
7832.00   0.68435502   0.00543754
7834.00   0.68752936   0.00510639
7836.00   0.69101912   0.00495651
7838.00   0.69322473   0.00482921
7840.00   0.69157979   0.00475663
7842.00   0.68495300   0.00470733
7844.00   0.67770767   0.00467916
7846.00   0.67824441   0.00489379
7848.00   0.68629268   0.00544221
7850.00   0.68743229   0.00573425
7852.00   0.68502489   0.00602326
7854.00   0.68153498   0.00602410
7856.00   0.67496869   0.00575178
7858.00   0.66903841   0.00538632
7860.00   0.66957915   0.00514136
7862.00   0.67401335   0.00495298
7864.00   0.67573372   0.00489575
7866.00   0.67716902   0.00500584
7868.00   0.67825279   0.00509144
7870.00   0.67660835   0.00523422
7872.00   0.67620742   0.00531055
7874.00   0.68130118   0.00527813
7876.00   0.68959996   0.00519812
7878.00   0.68904573   0.00514867
7880.00   0.67948839   0.00507529
7882.00   0.67604089   0.00506949
7884.00   0.67594910   0.00513821
7886.00   0.67846453   0.00518202
7888.00   0.68399307   0.00520548
7890.00   0.69051510   0.00520140
7892.00   0.69080615   0.00515799
7894.00   0.68666336   0.00507398
7896.00   0.68470043   0.00501883
7898.00   0.68225574   0.00496672
7900.00   0.67974466   0.00492829
7902.00   0.68029392   0.00477856
7904.00   0.68327379   0.00471837
7906.00   0.68358937   0.00513546
7908.00   0.68243265   0.00587999
7910.00   0.68056503   0.00615383
7912.00   0.67050371   0.00621706
7914.00   0.67454183   0.00623033
7916.00   0.69837976   0.00606795
7918.00   0.72363719   0.00588922
7920.00   0.73860383   0.00586246
7922.00   0.74837801   0.00587298
7924.00   0.74074885   0.00569958
7926.00   0.70655385   0.00525189
7928.00   0.69027656   0.00505635
7930.00   0.67929468   0.00503727
7932.00   0.67729193   0.00505890
7934.00   0.69102281   0.00508954
7936.00   0.71547416   0.00513852
7938.00   0.72570017   0.00507135
7940.00   0.72926083   0.00484370
7942.00   0.73036966   0.00482164
7944.00   0.72512844   0.00498638
7946.00   0.72250322   0.00509987
7948.00   0.72518805   0.00519561
7950.00   0.72939709   0.00527230
7952.00   0.72987872   0.00522763
7954.00   0.72588223   0.00501155
7956.00   0.72902131   0.00510910
7958.00   0.73981065   0.00550543
7960.00   0.74793577   0.00578531
7962.00   0.75382015   0.00596209
7964.00   0.75588363   0.00600733
7966.00   0.74671644   0.00582684
7968.00   0.72511494   0.00532397
7970.00   0.71363106   0.00510792
7972.00   0.70554486   0.00504281
7974.00   0.69926247   0.00503112
7976.00   0.69684649   0.00509676
7978.00   0.69717193   0.00517729
7980.00   0.69559464   0.00516292
7982.00   0.69295031   0.00511208
7984.00   0.69300523   0.00521581
7986.00   0.69506791   0.00546826
7988.00   0.69764405   0.00559548
7990.00   0.70459080   0.00569368
7992.00   0.70617917   0.00582445
7994.00   0.69716671   0.00590237
7996.00   0.68270037   0.00590949
7998.00   0.67439061   0.00592999
8000.00   0.66611907   0.00599918
8002.00   0.66681704   0.00575320
8004.00   0.68151730   0.00498819
8006.00   0.68802044   0.00454039
8008.00   0.68092886   0.00454416
8010.00   0.67100203   0.00471557
8012.00   0.67020318   0.00482313
8014.00   0.67319191   0.00498011
8016.00   0.67397565   0.00508250
8018.00   0.67601612   0.00514650
8020.00   0.67722386   0.00520749
8022.00   0.67102066   0.00531572
8024.00   0.66214681   0.00548853
8026.00   0.66435593   0.00564070
8028.00   0.67397696   0.00587903
8030.00   0.67680827   0.00574658
8032.00   0.67810732   0.00510158
8034.00   0.67679974   0.00469603
8036.00   0.66965404   0.00466959
8038.00   0.66131070   0.00476800
8040.00   0.65229684   0.00478437
8042.00   0.64148992   0.00481484
8044.00   0.64164829   0.00477326
8046.00   0.65450451   0.00461406
8048.00   0.65702501   0.00457439
8050.00   0.64959779   0.00465434
8052.00   0.64811736   0.00476064
8054.00   0.65731722   0.00486047
8056.00   0.66973308   0.00496530
8058.00   0.67323115   0.00500308
8060.00   0.67348382   0.00496622
8062.00   0.67111522   0.00496508
8064.00   0.66351581   0.00500452
8066.00   0.65503466   0.00501377
8068.00   0.64536318   0.00493196
8070.00   0.63739428   0.00481660
8072.00   0.64322972   0.00477121
8074.00   0.66528612   0.00474543
8076.00   0.67210367   0.00474412
8078.00   0.67246416   0.00475600
8080.00   0.66830897   0.00481368
8082.00   0.65759888   0.00495764
8084.00   0.64922357   0.00513154
8086.00   0.64695683   0.00515954
8088.00   0.64671636   0.00500012
8090.00   0.64796388   0.00493540
8092.00   0.65326485   0.00482269
8094.00   0.65600023   0.00490251
8096.00   0.65616074   0.00520488
8098.00   0.65549520   0.00535003
8100.00   0.65703622   0.00519715
8102.00   0.66064012   0.00490273
8104.00   0.65934107   0.00475980
8106.00   0.65382472   0.00465524
8108.00   0.64925319   0.00460272
8110.00   0.64188683   0.00460963
8112.00   0.63906464   0.00466153
8114.00   0.64590728   0.00482064
8116.00   0.65747678   0.00505561
8118.00   0.65922698   0.00505512
8120.00   0.65299365   0.00476043
8122.00   0.65402353   0.00477752
8124.00   0.66218227   0.00513989
8126.00   0.66462383   0.00526724
8128.00   0.66161120   0.00506605
8130.00   0.65795696   0.00482201
8132.00   0.65238664   0.00475279
8134.00   0.64237368   0.00468819
8136.00   0.63701048   0.00493210
8138.00   0.63271484   0.00570112
8140.00   0.63134125   0.00591590
8142.00   0.63399377   0.00550179
8144.00   0.64366066   0.00497819
8146.00   0.65666834   0.00485173
8148.00   0.67082870   0.00491388
8150.00   0.67566323   0.00499945
8152.00   0.67316771   0.00524369
8154.00   0.67079398   0.00538643
8156.00   0.66395926   0.00546938
8158.00   0.65988341   0.00548556
8160.00   0.66192743   0.00538102
8162.00   0.66582084   0.00515129
8164.00   0.66449615   0.00505487
8166.00   0.65633282   0.00497291
8168.00   0.65872476   0.00508133
8170.00   0.67417297   0.00546707
8172.00   0.68436331   0.00570614
8174.00   0.68178701   0.00561356
8176.00   0.67317542   0.00554050
8178.00   0.66938898   0.00598002
8180.00   0.66608924   0.00675845
8182.00   0.66666979   0.00689539
8184.00   0.67366529   0.00653062
8186.00   0.67562807   0.00635105
8188.00   0.67162627   0.00622056
8190.00   0.66845426   0.00614103
8192.00   0.66910806   0.00621122
8194.00   0.67306027   0.00640708
8196.00   0.68019029   0.00638051
8198.00   0.69261003   0.00613646
8200.00   0.70152271   0.00601100
8202.00   0.71231991   0.00599970
8204.00   0.72317892   0.00605452
8206.00   0.73341751   0.00609706
8208.00   0.74917468   0.00618009
8210.00   0.74848706   0.00623997
8212.00   0.72930613   0.00639312
8214.00   0.71548623   0.00626882
8216.00   0.70412558   0.00574385
8218.00   0.70056736   0.00528493
8220.00   0.70649704   0.00523071
8222.00   0.71961653   0.00543728
8224.00   0.71922019   0.00560110
8226.00   0.70402226   0.00594160
8228.00   0.70323288   0.00612495
8230.00   0.71039245   0.00620112
8232.00   0.72531271   0.00619259
8234.00   0.75296694   0.00631127
8236.00   0.77684385   0.00633480
8238.00   0.77617916   0.00605202
8240.00   0.75654867   0.00547579
8242.00   0.74480572   0.00540360
8244.00   0.72380278   0.00582256
8246.00   0.72014979   0.00599972
8248.00   0.73813251   0.00599912
8250.00   0.75867254   0.00589951
8252.00   0.76536849   0.00566710
8254.00   0.76477224   0.00523041
8256.00   0.76649928   0.00505470
8258.00   0.76468810   0.00507813
8260.00   0.76795158   0.00506984
8262.00   0.78070596   0.00509039
8264.00   0.78857931   0.00511443
8266.00   0.78316090   0.00507499
8268.00   0.77188441   0.00498503
8270.00   0.76168406   0.00517663
8272.00   0.74402303   0.00570317
8274.00   0.73631844   0.00596032
8276.00   0.73605585   0.00598037
8278.00   0.74300092   0.00602911
8280.00   0.75953749   0.00622827
8282.00   0.78237256   0.00637086
8284.00   0.79190367   0.00641870
8286.00   0.79655614   0.00646392
8288.00   0.78545320   0.00636990
8290.00   0.74715415   0.00599382
8292.00   0.72423756   0.00582867
8294.00   0.72552851   0.00595720
8296.00   0.73779228   0.00613925
8298.00   0.74312362   0.00618692
8300.00   0.74737525   0.00619100
8302.00   0.74834514   0.00620268
8304.00   0.74202830   0.00624047
8306.00   0.74395585   0.00618579
8308.00   0.75707492   0.00599503
8310.00   0.76888794   0.00583708
8312.00   0.76954484   0.00582617
8314.00   0.76044524   0.00585701
8316.00   0.75102788   0.00581984
8318.00   0.73670587   0.00580469
8320.00   0.72733825   0.00565550
8322.00   0.71641475   0.00521379
8324.00   0.70736721   0.00494915
8326.00   0.70637017   0.00509663
8328.00   0.70957717   0.00543797
8330.00   0.71195990   0.00553932
8332.00   0.71773386   0.00552834
8334.00   0.72554582   0.00559908
8336.00   0.73722270   0.00558913
8338.00   0.74267510   0.00577704
8340.00   0.74568376   0.00638052
8342.00   0.74576083   0.00702075
8344.00   0.73930866   0.00720243
8346.00   0.72685057   0.00708183
8348.00   0.72290888   0.00695373
8350.00   0.72661889   0.00664368
8352.00   0.72431210   0.00640571
8354.00   0.72009578   0.00621771
8356.00   0.71486419   0.00604770
8358.00   0.70616075   0.00578188
8360.00   0.69579649   0.00533315
8362.00   0.69653460   0.00520546
8364.00   0.70948204   0.00543251
8366.00   0.71624637   0.00549603
8368.00   0.72164962   0.00536365
8370.00   0.72442642   0.00523927
8372.00   0.72156110   0.00525935
8374.00   0.71163204   0.00533516
8376.00   0.70572454   0.00554492
8378.00   0.69701946   0.00605302
8380.00   0.69861946   0.00623973
8382.00   0.71454400   0.00611757
8384.00   0.72693646   0.00586915
8386.00   0.72103724   0.00567052
8388.00   0.70747092   0.00549400
8390.00   0.71597511   0.00549926
8392.00   0.74392289   0.00564302
8394.00   0.75082618   0.00598168
8396.00   0.74408856   0.00677135
8398.00   0.73786378   0.00704305
8400.00   0.72518662   0.00669744
8402.00   0.71044478   0.00613882
8404.00   0.70907292   0.00577669
8406.00   0.71677735   0.00536556
8408.00   0.72249240   0.00522799
8410.00   0.73108110   0.00540258
8412.00   0.73903495   0.00553942
8414.00   0.74593005   0.00564854
8416.00   0.75093469   0.00575738
8418.00   0.75232801   0.00587461
8420.00   0.75243500   0.00595808
8422.00   0.76595983   0.00615464
8424.00   0.79658812   0.00648713
8426.00   0.81313109   0.00670643
8428.00   0.82436696   0.00694277
8430.00   0.82831356   0.00700954
8432.00   0.81709170   0.00669785
8434.00   0.79501420   0.00609035
8436.00   0.79544777   0.00573599
8438.00   0.81344935   0.00545273
8440.00   0.82477048   0.00532275
8442.00   0.83518270   0.00533480
8444.00   0.84316030   0.00547503
8446.00   0.84814274   0.00580189
8448.00   0.85465065   0.00614808
8450.00   0.86347216   0.00629341
8452.00   0.87123501   0.00629650
8454.00   0.89058927   0.00631503
8456.00   0.92097583   0.00598262
8458.00   0.95137519   0.00627675
8460.00   0.98921841   0.00752316
8462.00   1.02860391   0.00857661
8464.00   1.05378097   0.00843827
8466.00   1.06651664   0.00730153
8468.00   1.09804320   0.00681087
8470.00   1.14599895   0.00645413
8472.00   1.18634892   0.00636631
8474.00   1.22136384   0.00662268
8476.00   1.25391901   0.00687489
8478.00   1.28554159   0.00700644
8480.00   1.31861687   0.00711175
8482.00   1.35386205   0.00708651
8484.00   1.39192235   0.00684073
8486.00   1.42471540   0.00683261
8488.00   1.46060085   0.00695371
8490.00   1.48909235   0.00716240
8492.00   1.49905390   0.00757482
8494.00   1.50065559   0.00819072
8496.00   1.50869399   0.00832684
8498.00   1.50447434   0.00795132
8500.00   1.52784830   0.00787595
8502.00   1.58565295   0.00808936
8504.00   1.63765413   0.00818379
8506.00   1.67337465   0.00805237
8508.00   1.69595432   0.00797623
8510.00   1.70853621   0.00801832
8512.00   1.71261537   0.00805496
8514.00   1.72288561   0.00793725
8516.00   1.74216896   0.00756545
8518.00   1.74498612   0.00745709
8520.00   1.72110856   0.00755240
8522.00   1.69975805   0.00768157
8524.00   1.71628892   0.00781447
8526.00   1.75653452   0.00789053
8528.00   1.78612065   0.00806097
8530.00   1.83225274   0.00845963
8532.00   1.84756249   0.00860062
8534.00   1.82369566   0.00827609
8536.00   1.79031545   0.00781949
8538.00   1.76670265   0.00755272
8540.00   1.74599296   0.00736646
8542.00   1.73881513   0.00746599
8544.00   1.75575519   0.00784283
8546.00   1.74393100   0.00816588
8548.00   1.70247382   0.00866120
8550.00   1.66235346   0.00898219
8552.00   1.63136017   0.00893337
8554.00   1.61545718   0.00868848
8556.00   1.64318019   0.00852568
8558.00   1.72224659   0.00827704
8560.00   1.77641135   0.00806987
8562.00   1.82812232   0.00783710
8564.00   1.86970609   0.00773902
8566.00   1.91050851   0.00771913
8568.00   1.93995941   0.00780898
8570.00   1.94467586   0.00800634
8572.00   1.92809975   0.00818603
8574.00   1.92532259   0.00845633
8576.00   1.92785472   0.00896184
8578.00   1.92615497   0.00920494
8580.00   1.92517209   0.00909654
8582.00   1.91359913   0.00887711
8584.00   1.88494635   0.00862970
8586.00   1.84123486   0.00825264
8588.00   1.79617661   0.00798395
8590.00   1.75041151   0.00774986
8592.00   1.68631691   0.00754671
8594.00   1.57163614   0.00729266
8596.00   1.50045961   0.00727447
8598.00   1.51970035   0.00768872
8600.00   1.59403872   0.00828238
8602.00   1.66286147   0.00840677
8604.00   1.77269387   0.00823327
8606.00   1.82734096   0.00816348
8608.00   1.83462256   0.00798077
8610.00   1.83883071   0.00793381
8612.00   1.85100847   0.00830298
8614.00   1.85608804   0.00883916
8616.00   1.84349185   0.00889267
8618.00   1.81883174   0.00862155
8620.00   1.78246963   0.00848170
8622.00   1.72106808   0.00828457
8624.00   1.67228180   0.00814238
8626.00   1.64046252   0.00818944
8628.00   1.61617827   0.00836579
8630.00   1.59263998   0.00844339
8632.00   1.57556635   0.00843677
8634.00   1.54902798   0.00832636
8636.00   1.51631367   0.00797670
8638.00   1.48224944   0.00784163
8640.00   1.44232726   0.00790465
8642.00   1.40816098   0.00812495
8644.00   1.38754845   0.00841634
8646.00   1.37753969   0.00874960
8648.00   1.37769419   0.00868233
8650.00   1.39456415   0.00818377
8652.00   1.40481442   0.00788888
8654.00   1.41217142   0.00762913
8656.00   1.41963345   0.00755883
8658.00   1.43066013   0.00774062
8660.00   1.44290447   0.00806298
8662.00   1.44824141   0.00826536
8664.00   1.44631618   0.00848516
8666.00   1.44870603   0.00851403
8668.00   1.45684481   0.00835480
8670.00   1.45909566   0.00817461
8672.00   1.45262706   0.00801466
8674.00   1.43993807   0.00785234
8676.00   1.42368197   0.00762838
8678.00   1.39825386   0.00736401
8680.00   1.39174294   0.00734303
8682.00   1.39811397   0.00759017
8684.00   1.40952390   0.00772018
8686.00   1.42746979   0.00782537
8688.00   1.44614500   0.00784737
8690.00   1.46026826   0.00773621
8692.00   1.47157317   0.00757388
8694.00   1.48292285   0.00769066
8696.00   1.49533617   0.00812348
8698.00   1.50199872   0.00827615
8700.00   1.50346404   0.00830201
8702.00   1.50620824   0.00830150
8704.00   1.50782108   0.00830577
8706.00   1.50536150   0.00833077
8708.00   1.50636023   0.00846059
8710.00   1.52672875   0.00888339
8712.00   1.49926090   0.00880751
8714.00   1.40713137   0.00812874
8716.00   1.33826327   0.00749706
8718.00   1.31014478   0.00708848
8720.00   1.31017828   0.00675839
8722.00   1.35540837   0.00693216
8724.00   1.46895170   0.00754870
8726.00   1.51462758   0.00815894
8728.00   1.52285409   0.00922199
8730.00   1.51996535   0.00968144
8732.00   1.49913275   0.00925459
8734.00   1.46517444   0.00851259
8736.00   1.44089758   0.00829407
8738.00   1.42044765   0.00840281
8740.00   1.40219194   0.00818771
8742.00   1.38443911   0.00758547
8744.00   1.37408775   0.00732117
8746.00   1.36894774   0.00765057
8748.00   1.36230171   0.00810884
8750.00   1.36390352   0.00813994
8752.00   1.38133454   0.00782799
8754.00   1.37497729   0.00797079
8756.00   1.35069221   0.00849186
8758.00   1.32558852   0.00880286
8760.00   1.29900581   0.00903085
8762.00   1.27014893   0.00905011
8764.00   1.24731737   0.00879438
8766.00   1.23201746   0.00837359
8768.00   1.20148820   0.00810048
8770.00   1.15323752   0.00769459
8772.00   1.13080692   0.00780059
8774.00   1.13312244   0.00864849
8776.00   1.12753195   0.00912047
8778.00   1.11675948   0.00888407
8780.00   1.10074192   0.00818856
8782.00   1.07377011   0.00773633
8784.00   1.03440446   0.00729656
8786.00   1.01090583   0.00716441
8788.00   0.99342805   0.00752089
8790.00   0.98485127   0.00754397
8792.00   0.99082941   0.00716969
8794.00   0.99638942   0.00675996
8796.00   0.98602310   0.00653766
8798.00   0.96484566   0.00636462
8800.00   0.95538384   0.00624818
8802.00   0.95358625   0.00622722
8804.00   0.94854453   0.00620689
8806.00   0.94266483   0.00621595
8808.00   0.93594795   0.00622232
8810.00   0.92764124   0.00619684
8812.00   0.91770235   0.00615344
8814.00   0.90409306   0.00613609
8816.00   0.88278663   0.00596325
8818.00   0.87020490   0.00623891
8820.00   0.87074691   0.00688845
8822.00   0.86472988   0.00760038
8824.00   0.84004724   0.00845542
8826.00   0.80803108   0.00917717
8828.00   0.78844422   0.00905593
8830.00   0.77195904   0.00806752
8832.00   0.76323298   0.00761179
8834.00   0.76799548   0.00741887
8836.00   0.76738793   0.00724124
8838.00   0.75747627   0.00704189
8840.00   0.74416330   0.00683505
8842.00   0.73441392   0.00673154
8844.00   0.72436106   0.00675470
8846.00   0.72701555   0.00667471
8848.00   0.74774939   0.00653887
8850.00   0.75817639   0.00642690
8852.00   0.75264528   0.00627495
8854.00   0.74250314   0.00611732
8856.00   0.74921435   0.00604679
8858.00   0.76920182   0.00604240
8860.00   0.77266455   0.00618536
8862.00   0.76312506   0.00656232
8864.00   0.76162210   0.00675711
8866.00   0.76552957   0.00687283
8868.00   0.76474777   0.00685437
8870.00   0.76073062   0.00665628
8872.00   0.75773534   0.00633579
8874.00   0.75368705   0.00615395
8876.00   0.74442300   0.00584868
8878.00   0.74327946   0.00608856
8880.00   0.75141311   0.00695785
8882.00   0.76067904   0.00759605
8884.00   0.76692465   0.00795638
8886.00   0.77017128   0.00808717
8888.00   0.77086014   0.00781991
8890.00   0.76430136   0.00697698
8892.00   0.77145848   0.00657568
8894.00   0.79149860   0.00633430
8896.00   0.81046543   0.00633308
8898.00   0.82694498   0.00664467
8900.00   0.83815333   0.00704018
8902.00   0.84144878   0.00727880
8904.00   0.83508003   0.00739350
8906.00   0.84304246   0.00738471
8908.00   0.86447591   0.00666977
8910.00   0.87943226   0.00713597
8912.00   0.88773000   0.00881333
8914.00   0.88892555   0.01028330
8916.00   0.88777056   0.01097725
8918.00   0.88041574   0.01117838
8920.00   0.86007687   0.01063983
8922.00   0.81952932   0.00867232
8924.00   0.79829532   0.00751705
8926.00   0.78547591   0.00705632
8928.00   0.77805266   0.00683153
8930.00   0.78317532   0.00666560
8932.00   0.79130763   0.00663272
8934.00   0.77582049   0.00656422
8936.00   0.73430437   0.00643639
8938.00   0.71967810   0.00662050
8940.00   0.72453168   0.00725380
8942.00   0.73094463   0.00761759
8944.00   0.73753506   0.00747812
8946.00   0.74598846   0.00722261
8948.00   0.74219817   0.00726711
8950.00   0.72292826   0.00724916
8952.00   0.71254584   0.00760055
8954.00   0.70711365   0.00855893
8956.00   0.69786736   0.00891575
8958.00   0.67921349   0.00859796
8960.00   0.66529322   0.00812106
8962.00   0.66649109   0.00780610
8964.00   0.67389867   0.00742656
8966.00   0.67905194   0.00731094
8968.00   0.68791959   0.00754794
8970.00   0.69454110   0.00761213
8972.00   0.69123426   0.00750175
8974.00   0.69093832   0.00721837
8976.00   0.70425370   0.00679373
8978.00   0.72273991   0.00622408
8980.00   0.72763199   0.00615389
8982.00   0.72334501   0.00652556
8984.00   0.72189102   0.00681990
8986.00   0.71442014   0.00723390
8988.00   0.71493506   0.00748044
8990.00   0.73000297   0.00748139
8992.00   0.74914935   0.00739129
8994.00   0.75805452   0.00748550
8996.00   0.76126426   0.00775294
8998.00   0.76423430   0.00797294
9000.00   0.75874755   0.00825552
9002.00   0.76540580   0.00834985
9004.00   0.79368055   0.00840794
9006.00   0.81851608   0.00833655
9008.00   0.80848137   0.00792521
9010.00   0.76948625   0.00710679
9012.00   0.75871584   0.00701188
9014.00   0.76156950   0.00753925
9016.00   0.76622123   0.00788399
9018.00   0.77546579   0.00839053
9020.00   0.78693423   0.00869994
9022.00   0.79657471   0.00825426
9024.00   0.80283543   0.00710388
9026.00   0.81178698   0.00686957
9028.00   0.82628140   0.00743397
9030.00   0.83197945   0.00753704
9032.00   0.82995769   0.00736801
9034.00   0.82474238   0.00726746
9036.00   0.81068808   0.00724292
9038.00   0.79042745   0.00726809
9040.00   0.78336641   0.00736517
9042.00   0.77850580   0.00754073
9044.00   0.79453042   0.00755763
9046.00   0.84354296   0.00738487
9048.00   0.87621224   0.00743727
9050.00   0.88122207   0.00775295
9052.00   0.87875345   0.00803885
9054.00   0.88960597   0.00810056
9056.00   0.91174972   0.00825255
9058.00   0.90287745   0.00818698
9060.00   0.85223582   0.00783995
9062.00   0.83124000   0.00741172
9064.00   0.84890476   0.00716512
9066.00   0.87556133   0.00715056
9068.00   0.88757983   0.00719919
9070.00   0.89863187   0.00734181
9072.00   0.90152672   0.00750824
9074.00   0.90265098   0.00783255
9076.00   0.88847178   0.00792399
9078.00   0.84830102   0.00787101
9080.00   0.80922133   0.00784787
9082.00   0.80187842   0.00771761
9084.00   0.81664363   0.00743515
9086.00   0.80252677   0.00732200
9088.00   0.76874906   0.00736634
9090.00   0.74163368   0.00721447
9092.00   0.71251363   0.00684199
9094.00   0.68955916   0.00660356
9096.00   0.68035284   0.00658662
9098.00   0.68446636   0.00672209
9100.00   0.68481681   0.00680373
9102.00   0.68508467   0.00692481
9104.00   0.68414813   0.00692170
9106.00   0.68392694   0.00680541
9108.00   0.68261796   0.00668721
9110.00   0.68120700   0.00657786
9112.00   0.68366471   0.00653472
9114.00   0.68497106   0.00656036
9116.00   0.68366832   0.00660862
9118.00   0.67914414   0.00670376
9120.00   0.67141899   0.00688655
9122.00   0.66284871   0.00699241
9124.00   0.64787573   0.00709186
9126.00   0.63576356   0.00726391
9128.00   0.63918594   0.00723677
9130.00   0.65834045   0.00699037
9132.00   0.66210318   0.00700147
9134.00   0.65643960   0.00730269
9136.00   0.65150914   0.00726008
9138.00   0.65177977   0.00697016
9140.00   0.65097645   0.00673371
9142.00   0.64250299   0.00650939
9144.00   0.63129357   0.00627399
9146.00   0.62295064   0.00628747
9148.00   0.61441186   0.00656144
9150.00   0.60595012   0.00671873
9152.00   0.59787178   0.00688595
9154.00   0.59263325   0.00696402
9156.00   0.59129459   0.00689838
9158.00   0.59042785   0.00677423
9160.00   0.57829738   0.00672319
9162.00   0.54983121   0.00663405
9164.00   0.54189733   0.00655486
9166.00   0.54992828   0.00647044
9168.00   0.55936849   0.00646961
9170.00   0.56757042   0.00649753
9172.00   0.57611260   0.00655142
9174.00   0.58178529   0.00656893
9176.00   0.58282083   0.00652751
9178.00   0.58797494   0.00649316
9180.00   0.59561014   0.00641596
9182.00   0.60226050   0.00640927
9184.00   0.61116213   0.00648200
9186.00   0.62096983   0.00655675
9188.00   0.62291032   0.00653970
9190.00   0.61961001   0.00645436
9192.00   0.62180784   0.00640929
9194.00   0.62679094   0.00634737
9196.00   0.63069895   0.00634708
9198.00   0.63386458   0.00641099
9200.00   0.63920426   0.00648057
9202.00   0.65020740   0.00653897
9204.00   0.66374713   0.00658330
9206.00   0.67053998   0.00679149
9208.00   0.67329204   0.00726772
9210.00   0.67667976   0.00747347
9212.00   0.67310247   0.00746822
9214.00   0.67942187   0.00739703
9216.00   0.70214483   0.00728355
9218.00   0.73183352   0.00711160
9220.00   0.75488496   0.00713009
9222.00   0.78085336   0.00734622
9224.00   0.79259917   0.00739600
9226.00   0.78863654   0.00729438
9228.00   0.78748220   0.00732462
9230.00   0.79140398   0.00742397
9232.00   0.79723525   0.00762472
9234.00   0.80268690   0.00812467
9236.00   0.80946130   0.00880637
9238.00   0.82416403   0.00909445
9240.00   0.84431487   0.00920852
9242.00   0.86888319   0.00922892
9244.00   0.90452048   0.00889813
9246.00   0.94243917   0.00856868
9248.00   0.97417873   0.00844984
9250.00   1.00568819   0.00826961
9252.00   1.02631685   0.00833718
9254.00   1.03522199   0.00872974
9256.00   1.04161298   0.00894342
9258.00   1.04570699   0.00904541
9260.00   1.04972303   0.00908112
9262.00   1.05394596   0.00894036
9264.00   1.06225634   0.00862740
9266.00   1.06314057   0.00850096
9268.00   1.05680385   0.00852804
9270.00   1.05135760   0.00858279
9272.00   1.04337057   0.00861812
9274.00   1.03723902   0.00875709
9276.00   1.03500098   0.00918607
9278.00   1.03988755   0.00958268
9280.00   1.05144468   0.00973906
9282.00   1.07340384   0.00980531
9284.00   1.07459211   0.00983016
9286.00   1.05869788   0.00975735
9288.00   1.04393166   0.00972254
9290.00   1.03126532   0.00952475
9292.00   1.02043411   0.00940572
9294.00   1.00925386   0.00972488
9296.00   0.99676394   0.01027697
9298.00   0.99000004   0.01101173
9300.00   0.99975723   0.01229119
9302.00   0.98457387   0.01287626
9304.00   0.94161677   0.01266448
9306.00   0.89664274   0.01247477
9308.00   0.85034829   0.01295141
9310.00   0.79641947   0.01373178
9312.00   0.78106454   0.01417143
9314.00   0.80517653   0.01456020
9316.00   0.80002296   0.01478375
9318.00   0.77480009   0.01479375
9320.00   0.76112446   0.01473222
9322.00   0.74987799   0.01487144
9324.00   0.73023924   0.01489653
9326.00   0.71284944   0.01412361
9328.00   0.69745716   0.01228937
9330.00   0.68249583   0.01145351
9332.00   0.66142708   0.01114536
9334.00   0.65377676   0.01136715
9336.00   0.66748464   0.01236056
9338.00   0.68120703   0.01336935
9340.00   0.67280486   0.01372273
9342.00   0.64736357   0.01378544
9344.00   0.63991770   0.01336755
9346.00   0.65248474   0.01202043
9348.00   0.64563063   0.01110417
9350.00   0.61150071   0.01063292
9352.00   0.56969905   0.01029947
9354.00   0.53821450   0.01003130
9356.00   0.51704372   0.01016866
9358.00   0.53036232   0.01009343
9360.00   0.59606817   0.00968906
9362.00   0.61520022   0.00976974
9364.00   0.58932137   0.00951636
9366.00   0.57715961   0.01101457
9368.00   0.61571389   0.01468468
9370.00   0.66588813   0.01830251
9372.00   0.64659414   0.02016763
9374.00   0.57607803   0.02203038
9376.00   0.52794881   0.02189500
9378.00   0.45899619   0.01910946
9380.00   0.42402861   0.01631671
9382.00   0.45261478   0.01430363
9384.00   0.49965784   0.01262275
9386.00   0.51773994   0.01102013
9388.00   0.53589481   0.00963579
9390.00   0.53973156   0.00855859
9392.00   0.52059220   0.00808423
9394.00   0.51392171   0.00786909
9396.00   0.52340594   0.00805305
9398.00   0.53532779   0.00847842
9400.00   0.54562837   0.00896259
9402.00   0.56050426   0.00968298
9404.00   0.55836311   0.00995491
9406.00   0.53132242   0.00996712
9408.00   0.52603312   0.00985143
9410.00   0.53847250   0.00941809
9412.00   0.55908546   0.00936700
9414.00   0.58913565   0.00998144
9416.00   0.61992091   0.01083854
9418.00   0.61354426   0.01171097
9420.00   0.56516820   0.01325530
9422.00   0.55043739   0.01339942
9424.00   0.55341250   0.01189361
9426.00   0.56713334   0.01054828
9428.00   0.58351952   0.00980854
9430.00   0.59931937   0.00981065
9432.00   0.62481332   0.01163740
9434.00   0.67041534   0.01473417
9436.00   0.67655522   0.01615741
9438.00   0.63297132   0.01743939
9440.00   0.61765683   0.01771292
9442.00   0.64434293   0.01624405
9444.00   0.68731949   0.01398305
9446.00   0.71882290   0.01265604
9448.00   0.76090121   0.01159600
9450.00   0.74855691   0.01140653
9452.00   0.67032224   0.01247973
9454.00   0.62334830   0.01321293
9456.00   0.60507599   0.01373567
9458.00   0.60292816   0.01394551
9460.00   0.60809508   0.01407957
9462.00   0.61708999   0.01431857
9464.00   0.63655132   0.01401900
9466.00   0.68071422   0.01278742
9468.00   0.70244700   0.01238426
9470.00   0.69892517   0.01279054
9472.00   0.68936166   0.01339612
9474.00   0.67910999   0.01420799
9476.00   0.65874720   0.01502497
9478.00   0.64490908   0.01483735
9480.00   0.63263193   0.01372937
9482.00   0.63062441   0.01302640
9484.00   0.64598766   0.01232099
9486.00   0.64481285   0.01158215
9488.00   0.61862695   0.01104009
9490.00   0.58861482   0.01067366
9492.00   0.57669327   0.01044988
9494.00   0.57422620   0.01041177
9496.00   0.57646549   0.01091274
9498.00   0.58578321   0.01229906
9500.00   0.59797677   0.01291751
9502.00   0.62437311   0.01281714
9504.00   0.64860687   0.01222434
9506.00   0.64678869   0.01134826
9508.00   0.62560841   0.00988289
9510.00   0.61729211   0.00939333
9512.00   0.61176404   0.00936700
9514.00   0.60578787   0.01010531
9516.00   0.60120329   0.01206663
9518.00   0.60719761   0.01365145
9520.00   0.61693567   0.01396148
9522.00   0.62740895   0.01353250
9524.00   0.63660169   0.01292422
9526.00   0.64376962   0.01128791
9528.00   0.65223426   0.01062115
9530.00   0.66992599   0.01107448
9532.00   0.68421504   0.01149410
9534.00   0.67682970   0.01159700
9536.00   0.65623009   0.01155025
9538.00   0.64668411   0.01123546
9540.00   0.62322259   0.01027908
9542.00   0.64823464   0.01033189
9544.00   0.73927847   0.01111936
9546.00   0.80456686   0.01221411
9548.00   0.82273406   0.01360859
9550.00   0.82147741   0.01469821
9552.00   0.81774348   0.01473066
9554.00   0.79632810   0.01373025
9556.00   0.78900361   0.01313894
9558.00   0.78269097   0.01197212
9560.00   0.78855795   0.01195793
9562.00   0.80431455   0.01334693
9564.00   0.82748473   0.01461118
9566.00   0.87171492   0.01500342
9568.00   0.93811888   0.01502316
9570.00   0.95737812   0.01444183
9572.00   0.93803814   0.01255701
9574.00   0.92906964   0.01150767
9576.00   0.90817052   0.01114748
9578.00   0.89346865   0.01102684
9580.00   0.90401515   0.01102736
9582.00   0.92819273   0.01127004
9584.00   0.94168839   0.01158295
9586.00   0.95790088   0.01213138
9588.00   0.96004516   0.01241818
9590.00   0.94292453   0.01254547
9592.00   0.93152314   0.01255926
9594.00   0.93209419   0.01254151
9596.00   0.93409204   0.01273733
9598.00   0.93309590   0.01312760
9600.00   0.92519397   0.01381152
9602.00   0.93241680   0.01403308
9604.00   0.96346644   0.01409452
9606.00   0.97948131   0.01372647
9608.00   0.96640638   0.01287834
9610.00   0.93794611   0.01202141
9612.00   0.91349971   0.01151080
9614.00   0.88381502   0.01094654
9616.00   0.86948028   0.01103840
9618.00   0.86879915   0.01196128
9620.00   0.86734554   0.01254113
9622.00   0.86852506   0.01289827
9624.00   0.86316231   0.01300793
9626.00   0.84198865   0.01253053
9628.00   0.80464283   0.01127273
9630.00   0.77221686   0.01063831
9632.00   0.73350567   0.01024481
9634.00   0.70394808   0.01016010
9636.00   0.67763680   0.01033312
9638.00   0.66493899   0.01068983
9640.00   0.66650286   0.01129893
9642.00   0.68004715   0.01192091
9644.00   0.68573600   0.01181609
9646.00   0.68912712   0.01092031
9648.00   0.68761095   0.01069128
9650.00   0.68933851   0.01102577
9652.00   0.67816329   0.01118762
9654.00   0.64477924   0.01099377
9656.00   0.60618007   0.01072973
9658.00   0.58667505   0.01057740
9660.00   0.57446569   0.01021459
9662.00   0.57504284   0.01036212
9664.00   0.59989992   0.01108862
9666.00   0.61134127   0.01157098
9668.00   0.60576135   0.01185433
9670.00   0.59196520   0.01199800
9672.00   0.56865391   0.01152241
9674.00   0.52615882   0.01010169
9676.00   0.52346234   0.00993247
9678.00   0.55910131   0.01093807
9680.00   0.57867604   0.01132748
9682.00   0.58793157   0.01122886
9684.00   0.59691501   0.01115560
9686.00   0.60522965   0.01117724
9688.00   0.60725716   0.01114832
9690.00   0.60147318   0.01137640
9692.00   0.58594203   0.01198688
9694.00   0.57645008   0.01206789
9696.00   0.56868321   0.01167808
9698.00   0.55708671   0.01140055
9700.00   0.53915754   0.01117948
9702.00   0.52208179   0.01093990
9704.00   0.52932909   0.01093284
9706.00   0.56604236   0.01114481
9708.00   0.57347223   0.01118852
9710.00   0.55772322   0.01100155
9712.00   0.54617715   0.01111341
9714.00   0.54697400   0.01173491
9716.00   0.54317302   0.01243445
9718.00   0.51843995   0.01248752
9720.00   0.46968590   0.01194951
9722.00   0.45857374   0.01165913
9724.00   0.47947267   0.01115645
9726.00   0.49220832   0.01110603
9728.00   0.49074477   0.01167521
9730.00   0.48516445   0.01226272
9732.00   0.49284214   0.01222559
9734.00   0.50994088   0.01171590
9736.00   0.51712301   0.01163038
9738.00   0.52114081   0.01181968
9740.00   0.52326241   0.01188042
9742.00   0.51700467   0.01190896
9744.00   0.50174192   0.01170926
9746.00   0.49178752   0.01120188
9748.00   0.49026281   0.01056236
9750.00   0.49389403   0.01030359
9752.00   0.50538604   0.01031646
9754.00   0.51112074   0.01034325
9756.00   0.52009793   0.01060527
9758.00   0.52015103   0.01064679
9760.00   0.49771608   0.01030050
9762.00   0.47053514   0.00986408
9764.00   0.47579528   0.00982812
9766.00   0.50591512   0.00996482
9768.00   0.52093172   0.01037998
9770.00   0.53707573   0.01142399
9772.00   0.54180536   0.01184775
9774.00   0.52732098   0.01141701
9776.00   0.51462737   0.01090117
9778.00   0.52256900   0.01111034
9780.00   0.53883040   0.01166949
9782.00   0.55383122   0.01218624
9784.00   0.58336952   0.01273019
9786.00   0.59435704   0.01348840
9788.00   0.57569569   0.01464683
9790.00   0.54047787   0.01536915
9792.00   0.51226026   0.01534801
9794.00   0.48718821   0.01500644
9796.00   0.47833990   0.01454654
9798.00   0.49257414   0.01361786
9800.00   0.48839207   0.01288099
9802.00   0.46554431   0.01228034
9804.00   0.44745295   0.01183028
9806.00   0.44104506   0.01161798
9808.00   0.43862297   0.01162789
9810.00   0.44484408   0.01165741
9812.00   0.46766993   0.01186523
9814.00   0.47639795   0.01192226
9816.00   0.47165871   0.01185441
9818.00   0.46903351   0.01179194
9820.00   0.47980520   0.01177704
9822.00   0.48687549   0.01184029
9824.00   0.47424829   0.01203360
9826.00   0.45024255   0.01234232
9828.00   0.43898472   0.01213369
9830.00   0.43081684   0.01117114
9832.00   0.42654447   0.01076791
9834.00   0.43862908   0.01094268
9836.00   0.45314911   0.01144821
9838.00   0.43944521   0.01187584
9840.00   0.40155135   0.01229065
9842.00   0.40644957   0.01251898
9844.00   0.46034159   0.01263734
9846.00   0.47152826   0.01265355
9848.00   0.45305191   0.01243949
9850.00   0.42977141   0.01238796
9852.00   0.39724758   0.01278988
9854.00   0.35707633   0.01345526
9856.00   0.35390383   0.01352398
9858.00   0.38429876   0.01308878
9860.00   0.40027896   0.01281622
9862.00   0.41563986   0.01211048
9864.00   0.42574181   0.01233087
9866.00   0.42843606   0.01424703
9868.00   0.43295006   0.01669430
9870.00   0.44105351   0.01740926
9872.00   0.45014790   0.01711377
9874.00   0.45310619   0.01664391
9876.00   0.45028225   0.01543948
9878.00   0.45159961   0.01452483
9880.00   0.45527893   0.01395576
9882.00   0.45576747   0.01351864
9884.00   0.45389053   0.01311542
9886.00   0.44681360   0.01270994
9888.00   0.45198101   0.01301420
9890.00   0.47289960   0.01422393
9892.00   0.48235865   0.01488953
9894.00   0.48000151   0.01513828
9896.00   0.47651757   0.01513867
9898.00   0.46354063   0.01512156
9900.00   0.42796052   0.01524938
9902.00   0.41301851   0.01503119
9904.00   0.40905292   0.01398497
9906.00   0.40924096   0.01403534
9908.00   0.41069520   0.01534031
9910.00   0.41827440   0.01651476
9912.00   0.42636408   0.01740000
9914.00   0.43499790   0.01815041
9916.00   0.44650444   0.01783883
9918.00   0.47088298   0.01606032
9920.00   0.46755761   0.01532997
9922.00   0.42893389   0.01550209
9924.00   0.40084510   0.01576704
9926.00   0.40571018   0.01552619
9928.00   0.41909723   0.01506500
9930.00   0.41032098   0.01490633
9932.00   0.38852495   0.01434815
9934.00   0.39853780   0.01494954
9936.00   0.44034503   0.01639101
9938.00   0.46881117   0.01821655
9940.00   0.49191992   0.02045623
9942.00   0.49596016   0.02214397
9944.00   0.46822479   0.02244985
9946.00   0.41141073   0.02168592
9948.00   0.38723131   0.02122722
9950.00   0.37078853   0.02009032
9952.00   0.37513877   0.01995303
9954.00   0.41009840   0.02110625
9956.00   0.45029095   0.02215912
9958.00   0.47866663   0.02221906
9960.00   0.50416744   0.02175120
9962.00   0.50560500   0.02089296
9964.00   0.47849633   0.01886869
9966.00   0.46064527   0.01787130
9968.00   0.43940555   0.01801533
9970.00   0.43274797   0.01813411
9972.00   0.45110832   0.01791263
9974.00   0.48831499   0.01765254
9976.00   0.51192880   0.01739419
9978.00   0.54349199   0.01670134
9980.00   0.53459427   0.01696866
9982.00   0.47822823   0.01857698
9984.00   0.42824243   0.01953148
9986.00   0.39902563   0.01906180
9988.00   0.39238240   0.01816475
9990.00   0.40428238   0.01774689
9992.00   0.44380318   0.01674058
9994.00   0.46795481   0.01654134
9996.00   0.48479100   0.01713734
9998.00   0.50904593   0.01765680
10000.00   0.54855707   0.01711411
10002.00   0.58952150   0.01737003
10004.00   0.61146384   0.02025367
10006.00   0.60309586   0.02434614
10008.00   0.59311403   0.02654629
10010.00   0.56568557   0.02896471
10012.00   0.55402234   0.02929931
10014.00   0.54347003   0.02674533
10016.00   0.53757498   0.02386614
10018.00   0.52709398   0.02297490
10020.00   0.51071563   0.02328411
10022.00   0.52070597   0.02316372
10024.00   0.55922809   0.02341699
10026.00   0.58842435   0.02307732
10028.00   0.61538330   0.02194012
10030.00   0.63050997   0.02100440
10032.00   0.63678584   0.02086842
10034.00   0.64762270   0.02129743
10036.00   0.67461628   0.02158808
10038.00   0.71178913   0.02180762
10040.00   0.73819235   0.02196760
10042.00   0.76420587   0.02235416
10044.00   0.78361759   0.02235530
10046.00   0.78955895   0.02154301
10048.00   0.79497790   0.02074331
10050.00   0.80743194   0.02072543
10052.00   0.81651849   0.02120436
10054.00   0.83346620   0.02172751
10056.00   0.86003181   0.02271687
10058.00   0.88523838   0.02322526
10060.00   0.90643176   0.02326656
10062.00   0.91529334   0.02335711
10064.00   0.91230419   0.02367645
10066.00   0.90275577   0.02384559
10068.00   0.90792611   0.02454021
10070.00   0.91474348   0.02577248
10072.00   0.94391391   0.02675236
10074.00   1.00066939   0.02750139
10076.00   1.04554772   0.02852898
10078.00   1.08200878   0.02958829
10080.00   1.12279403   0.03016277
10082.00   1.14065170   0.03017982
10084.00   1.13362741   0.02972762
10086.00   1.13574392   0.02907337
10088.00   1.14868224   0.02732934
10090.00   1.14762050   0.02646419
10092.00   1.12881631   0.02742047
10094.00   1.09294474   0.02953022
10096.00   1.05062646   0.03094616
10098.00   0.97547731   0.03274090
10100.00   0.97844028   0.03300850
10102.00   1.04816669   0.03171207
10104.00   1.12959215   0.03050586
10106.00   1.23069346   0.02988222
10108.00   1.29641533   0.02988932
10110.00   1.25411785   0.03014542
10112.00   1.10414177   0.03021404
10114.00   1.05097914   0.03068737
10116.00   1.03849238   0.03124260
10118.00   1.03983113   0.03267950
10120.00   1.07226878   0.03532093
10122.00   1.10558945   0.03657334
10124.00   1.09732670   0.03517620
10126.00   1.05562943   0.03218653
10128.00   1.01099250   0.03100272
10130.00   0.92999399   0.03069490
10132.00   0.90123716   0.03035710
10134.00   0.92735589   0.03048978
10136.00   0.94497988   0.03085524
10138.00   0.93374327   0.03069366
10140.00   0.93011591   0.03021454
10142.00   0.94382969   0.03096786
10144.00   0.96860126   0.03281107
10146.00   0.95714530   0.03294302
10148.00   0.92877015   0.03156956
10150.00   0.89082640   0.03093852
10152.00   0.80729333   0.03076905
10154.00   0.71192628   0.03051621
10156.00   0.67312816   0.02988443
10158.00   0.66499856   0.02859619
10160.00   0.65722519   0.02855186
10162.00   0.66827124   0.02907237
10164.00   0.67312402   0.03048062
10166.00   0.66268709   0.03320619
10168.00   0.67129314   0.03577064
10170.00   0.71269488   0.03677908
10172.00   0.78312984   0.03678660
10174.00   0.76495415   0.03656781
10176.00   0.64106846   0.03560152
10178.00   0.59074458   0.03471116
10180.00   0.61419567   0.03339667
10182.00   0.63894558   0.03287598
10184.00   0.63515159   0.03375325
10186.00   0.63432080   0.03549543
10188.00   0.62483472   0.03625445
10190.00   0.58850357   0.03664953
10192.00   0.58585528   0.03611841
10194.00   0.61857429   0.03377121
10196.00   0.65893221   0.03336943
10198.00   0.69854060   0.03557483
10200.00   0.76259822   0.03928738
10202.00   0.80064875   0.04061438
10204.00   0.80050170   0.03925238
10206.00   0.77571419   0.04124916
10208.00   0.75465706   0.04802019
10210.00   0.66717821   0.04954360
10212.00   0.43555373   0.04471239
10214.00   0.25517962   0.03845332
10216.00   0.31080285   0.03586598
10218.00   0.53487830   0.03517246
10220.00   0.61536077   0.03553395
10222.00   0.66217352   0.03891047
10224.00   0.66965087   0.04007737
10226.00   0.57744423   0.03876884
10228.00   0.46092452   0.03645551
10230.00   0.43276778   0.03555754
10232.00   0.45751646   0.03552198
10234.00   0.45089974   0.03483758
10236.00   0.42797646   0.03345097
10238.00   0.43022591   0.03308266
10240.00   0.46841447   0.03367751
10242.00   0.49843736   0.03460791
10244.00   0.47243704   0.03577183
10246.00   0.41044305   0.03626435
10248.00   0.42662483   0.03550559
10250.00   0.53234796   0.03353300
10252.00   0.55856636   0.03324831
10254.00   0.51624429   0.03358937
10256.00   0.46075843   0.03417844
10258.00   0.42105149   0.03587529
10260.00   0.41920163   0.03797694
10262.00   0.48213463   0.03956582
10264.00   0.63835922   0.04166819
10266.00   0.67850637   0.04187309
10268.00   0.63874999   0.03964858
10270.00   0.58818582   0.03852659
10272.00   0.54012865   0.03894581
10274.00   0.52973107   0.04091244
10276.00   0.53928326   0.04334367
10278.00   0.54325157   0.04540231
10280.00   0.50435311   0.04921897
10282.00   0.38945539   0.05604319
10284.00   0.37142076   0.05926277
10286.00   0.41472578   0.05905572
10288.00   0.44401559   0.05738965
10290.00   0.49913259   0.05597315
10292.00   0.59902826   0.05431062
10294.00   0.59925240   0.05312202
10296.00   0.50350662   0.05263767
10298.00   0.45644957   0.05159103
10300.00   0.42488144   0.04906221
10302.00   0.42812033   0.04721859
10304.00   0.48272905   0.04842267
10306.00   0.55383021   0.04992893
10308.00   0.51304875   0.04807615
10310.00   0.33046162   0.04324455
10312.00   0.29510516   0.04162174
10314.00   0.37519608   0.04182949
10316.00   0.46226816   0.04269542
10318.00   0.55323413   0.04510080
10320.00   0.61036563   0.04705969
10322.00   0.54490006   0.04680507
10324.00   0.35550298   0.04490481
10326.00   0.30868389   0.04400521
10328.00   0.37312523   0.04275217
10330.00   0.38111661   0.04282325
10332.00   0.31922093   0.04439001
10334.00   0.27153288   0.04584088
10336.00   0.31090114   0.04636750
10338.00   0.42346933   0.04640281
10340.00   0.45810071   0.04664170
10342.00   0.44660170   0.04646707
10344.00   0.43080364   0.04724152
10346.00   0.42300192   0.04938703
10348.00   0.42505464   0.05060595
10350.00   0.41790730   0.04987075
10352.00   0.41440783   0.04831792
10354.00   0.40358573   0.04791818
10356.00   0.38998090   0.04778144
10358.00   0.36774500   0.04838412
10360.00   0.32494447   0.05021581
10362.00   0.28730618   0.05143632
10364.00   0.29627970   0.05161792
10366.00   0.33727258   0.05216998
10368.00   0.34616689   0.05448318
10370.00   0.36131825   0.05864250
10372.00   0.31994703   0.06094180
10374.00   0.18216683   0.06327673
10376.00   0.10908732   0.06314687
10378.00   0.13434420   0.06090103
10380.00   0.21404167   0.05774478
10382.00   0.29664747   0.05410485
10384.00   0.41014612   0.04963465
10386.00   0.46785070   0.04810109
10388.00   0.47756696   0.04911970
10390.00   0.49535652   0.05033140
10392.00   0.56908000   0.05381844
10394.00   0.61891615   0.05631424
10396.00   0.50929116   0.05540093
10398.00   0.28106348   0.05214453
10400.00   0.23478035   0.05056643
10402.00   0.31216969   0.04856591
10404.00   0.36269966   0.04879852
10406.00   0.43781371   0.05159583
10408.00   0.47726440   0.05467099
10410.00   0.48845953   0.05713086
10412.00   0.54235253   0.05959605
10414.00   0.52670767   0.06046212
10416.00   0.41998304   0.05974914
10418.00   0.34680956   0.05865040
10420.00   0.30098826   0.05677373
10422.00   0.24996188   0.05497122
10424.00   0.17196736   0.05262415
10426.00   0.12875495   0.05070110
10428.00   0.17269902   0.05052765
10430.00   0.28173227   0.05159269
10432.00   0.34632998   0.05256638
10434.00   0.46370985   0.05523030
10436.00   0.44856593   0.05519642
10438.00   0.21862316   0.05193357
10440.00   0.02159184   0.04934819
10442.00   0.06708503   0.04891108
10444.00   0.28405602   0.04909211
10446.00   0.37678000   0.04948069
10448.00   0.43321666   0.05028516
10450.00   0.48126270   0.05173327
10452.00   0.53856349   0.05291202
10454.00   0.53752358   0.05509161
10456.00   0.46477211   0.05993150
10458.00   0.41223694   0.06505131
10460.00   0.43307078   0.06597350
10462.00   0.51141921   0.06397686
10464.00   0.49050942   0.06172930
10466.00   0.43686897   0.05677414
10468.00   0.42312105   0.05393824
10470.00   0.36694225   0.05356472
10472.00   0.28419731   0.05407994
10474.00   0.28072263   0.05487139
10476.00   0.34284748   0.05654076
10478.00   0.35858871   0.05579425
10480.00   0.35528138   0.05233392
10482.00   0.34541211   0.05045751
10484.00   0.34028794   0.04954956
10486.00   0.34299381   0.04922880
10488.00   0.28396706   0.04942729
10490.00   0.12160923   0.04979374
10492.00   0.13256629   0.05111682
10494.00   0.30540480   0.05448286
10496.00   0.41885945   0.05552141
10498.00   0.49437411   0.05415247
10500.00   0.52816500   0.05285639
10502.00   0.48647290   0.05260281
10504.00   0.36920123   0.05288712
10506.00   0.33396457   0.05315703
10508.00   0.36704029   0.05362197
10510.00   0.34880942   0.05406765
10512.00   0.24107148   0.05497817
10514.00   0.19170806   0.05535935
10516.00   0.27080527   0.05497048
10518.00   0.36408144   0.05433784
10520.00   0.35242735   0.05468865
10522.00   0.26376231   0.05610594
10524.00   0.24890921   0.05659070
10526.00   0.26573968   0.05649861
10528.00   0.28705015   0.05614454
10530.00   0.31650847   0.05516999
10532.00   0.32640116   0.05372822
10534.00   0.30474023   0.05355717
10536.00   0.24933371   0.05449509
10538.00   0.23258554   0.05452197
10540.00   0.24566929   0.05406915
10542.00   0.24978271   0.05363080
10544.00   0.21307538   0.05246626
10546.00   0.19788070   0.05211273
10548.00   0.27736023   0.05439156
10550.00   0.43950918   0.05868074
10552.00   0.48685284   0.06010129
10554.00   0.47173910   0.06031883
10556.00   0.42566328   0.05941724
10558.00   0.32709773   0.05638678
10560.00   0.25544069   0.05463227
10562.00   0.24848889   0.05632893
10564.00   0.29561114   0.06036508
10566.00   0.30862837   0.06143098
10568.00   0.30587213   0.06117117
10570.00   0.30447316   0.06027104
10572.00   0.30990615   0.05799865
10574.00   0.33628596   0.05590081
10576.00   0.38087505   0.05542830
10578.00   0.42169309   0.05587522
10580.00   0.41896830   0.05535450
10582.00   0.38201416   0.05406185
10584.00   0.34896465   0.05390237
10586.00   0.30046938   0.05485109
10588.00   0.25736209   0.05555919
10590.00   0.20776412   0.05571360
10592.00   0.19107497   0.05612549
10594.00   0.26340792   0.05665903
10596.00   0.42341727   0.05649120
10598.00   0.49351887   0.05654460
10600.00   0.54111454   0.05754640
10602.00   0.52954248   0.05668746
10604.00   0.43878740   0.05273971
10606.00   0.36831553   0.04927143
10608.00   0.33836740   0.04850756
10610.00   0.31087384   0.04905981
10612.00   0.31881942   0.04904777
10614.00   0.39373703   0.04968311
10616.00   0.40759689   0.04932142
10618.00   0.36846408   0.04771669
10620.00   0.31406409   0.04625399
10622.00   0.26845007   0.04572478
10624.00   0.23426531   0.04585612
10626.00   0.22938129   0.04563614
10628.00   0.26199124   0.04561795
10630.00   0.26774550   0.04494133
10632.00   0.24993305   0.04316595
10634.00   0.24119297   0.04185838
10636.00   0.25451321   0.04199002
10638.00   0.28658611   0.04275546
10640.00   0.33119745   0.04320445
10642.00   0.42042840   0.04425422
10644.00   0.43092896   0.04365639
10646.00   0.35856658   0.04108465
10648.00   0.30564231   0.03904757
10650.00   0.30353811   0.03780271
10652.00   0.31207883   0.03673898
10654.00   0.32179153   0.03595350
10656.00   0.37511414   0.03574453
10658.00   0.36998957   0.03522697
10660.00   0.31234445   0.03473823
10662.00   0.27186765   0.03406860
10664.00   0.24026286   0.03245405
10666.00   0.22203881   0.03151086
10668.00   0.24363744   0.03318193
10670.00   0.28652930   0.03626574
10672.00   0.30562530   0.03673346
10674.00   0.32539746   0.03587179
10676.00   0.31913105   0.03441206
10678.00   0.27476926   0.03097302
10680.00   0.25076520   0.02824446
10682.00   0.22754906   0.02781325
10684.00   0.18889569   0.02837568
10686.00   0.20976456   0.02790309
10688.00   0.29462971   0.02686312
10690.00   0.31584287   0.02672772
10692.00   0.27040958   0.02716917
10694.00   0.27792658   0.02796079
10696.00   0.34997793   0.02937745
10698.00   0.42799513   0.03041971
10700.00   0.44146651   0.03026995
10702.00   0.40574007   0.02939426
10704.00   0.37616451   0.02874330
10706.00   0.32898182   0.02785496
10708.00   0.28792125   0.02692639
10710.00   0.24860875   0.02592397
10712.00   0.22190163   0.02564658
10714.00   0.20693699   0.02633431
10716.00   0.19576903   0.02769071
10718.00   0.18807254   0.02732927
10720.00   0.17562645   0.02525560
10722.00   0.19167936   0.02386007
10724.00   0.24142268   0.02302087
10726.00   0.27499767   0.02236899
10728.00   0.27528404   0.02138551
10730.00   0.28116594   0.02049940
10732.00   0.30389893   0.02054121
10734.00   0.34479006   0.02172169
10736.00   0.34939629   0.02181514
10738.00   0.33656141   0.02107477
10740.00   0.32109374   0.02067686
10742.00   0.30502889   0.02110558
10744.00   0.27746162   0.02196943
10746.00   0.24743594   0.02225271
10748.00   0.21263331   0.02250967
10750.00   0.21867105   0.02200554
10752.00   0.27310377   0.01946019
10754.00   0.30178407   0.01854940
10756.00   0.29323338   0.02188885
10758.00   0.25451946   0.02621484
10760.00   0.24321453   0.02614257
10762.00   0.26885299   0.02182825
10764.00   0.26731069   0.01984481
10766.00   0.24045426   0.01848248
10768.00   0.23555125   0.01774949
10770.00   0.26318929   0.01782360
10772.00   0.28255795   0.01796882
10774.00   0.27694124   0.01743843
10776.00   0.24369396   0.01658040
10778.00   0.24084113   0.01632270
10780.00   0.26513065   0.01662080
10782.00   0.27970915   0.01677550
10784.00   0.26092760   0.01672956
10786.00   0.24223147   0.01633508
10788.00   0.25857265   0.01592569
10790.00   0.28787377   0.01550531
10792.00   0.28248475   0.01520559
10794.00   0.24118213   0.01465020
10796.00   0.22942469   0.01508085
10798.00   0.24881477   0.01721897
10800.00   0.26904073   0.01802849
10802.00   0.25054438   0.01590879
10804.00   0.18376121   nan
10806.00   0.13765200   nan
10808.00   0.09440070   nan
10810.00   0.07320596   0.03296974
10812.00   0.04839389   0.08104149
10814.00   0.08277280   0.08821304
10816.00   0.18888034   0.06453165
10818.00   0.27720402   nan
10820.00   0.28196622   nan
10822.00   0.22900600   0.01280085
10824.00   0.22187755   0.01085428
10826.00   0.24604025   0.01745602
10828.00   0.23989774   0.01841856
10830.00   0.19349201   0.01629917
10832.00   0.19349201   0.01629917
