# File created by shivutils (I.Shivvers)
# wl(A)   flm    er(optional)
3449.00   1.24908721   0.14489302
3450.00   1.27195942   0.14455405
3451.00   1.19370902   0.14101039
3452.00   1.21192777   0.13983598
3453.00   1.29389799   0.14048016
3454.00   1.22069895   0.13862476
3455.00   1.11857164   0.13643509
3456.00   1.18934977   0.13663906
3457.00   1.33220351   0.13707490
3458.00   1.17851233   0.13094655
3459.00   1.19962108   0.12849167
3460.00   1.28739417   0.12955572
3461.00   1.24847150   0.13001370
3462.00   1.17458022   0.13008589
3463.00   1.23527336   0.13160917
3464.00   1.27630281   0.13284411
3465.00   1.23240590   0.13170534
3466.00   1.21957922   0.13028067
3467.00   1.16704583   0.12959905
3468.00   1.18280494   0.13107137
3469.00   1.23313129   0.13180694
3470.00   1.23939359   0.13113235
3471.00   1.22901702   0.13021851
3472.00   1.20861745   0.12751375
3473.00   1.26827645   0.12571569
3474.00   1.25758195   0.12390269
3475.00   1.25603664   0.12344666
3476.00   1.15279591   0.12302726
3477.00   1.25893664   0.12687702
3478.00   1.13824892   0.12695257
3479.00   1.24468517   0.13041323
3480.00   1.16814137   0.12784329
3481.00   1.12109017   0.12588987
3482.00   1.14131820   0.12534265
3483.00   1.09765077   0.12339568
3484.00   1.32465029   0.12738988
3485.00   1.29641545   0.12819195
3486.00   1.39312840   0.13060619
3487.00   1.31668186   0.12819344
3488.00   1.23413157   0.12414647
3489.00   1.19362092   0.12098331
3490.00   1.14189339   0.11911071
3491.00   1.18475759   0.11964332
3492.00   1.20999479   0.12107027
3493.00   1.18690383   0.12065969
3494.00   1.12745059   0.11906131
3495.00   1.07365143   0.11738951
3496.00   1.28401625   0.12112096
3497.00   1.36557245   0.12345834
3498.00   1.25457036   0.12222368
3499.00   1.17757773   0.12238763
3500.00   1.07613325   0.12213122
3501.00   1.17883158   0.12433472
3502.00   1.23363495   0.12569460
3503.00   1.20199788   0.12459452
3504.00   1.20890701   0.12352752
3505.00   1.17625356   0.12246211
3506.00   1.18009889   0.12281035
3507.00   1.28649211   0.12472042
3508.00   1.14758635   0.12062291
3509.00   1.05348134   0.11797076
3510.00   1.16061056   0.11953387
3511.00   1.19540191   0.11808110
3512.00   1.17157781   0.11680635
3513.00   1.12081921   0.11547380
3514.00   1.16986966   0.11694653
3515.00   1.33060825   0.12034010
3516.00   1.29849362   0.12297195
3517.00   1.30926824   0.12331292
3518.00   1.22445905   0.12096673
3519.00   1.16224647   0.11885074
3520.00   1.12253082   0.11570623
3521.00   1.22009921   0.11691321
3522.00   1.31781375   0.11678456
3523.00   1.23011649   0.11337627
3524.00   1.22080719   0.11227764
3525.00   1.24221420   0.11201724
3526.00   1.11943197   0.11091726
3527.00   1.25513673   0.11572634
3528.00   1.33885670   0.11902923
3529.00   1.26987660   0.11870387
3530.00   1.12992752   0.11492870
3531.00   1.24410009   0.11614897
3532.00   1.33000910   0.11757082
3533.00   1.25588286   0.11656108
3534.00   1.21093178   0.11727177
3535.00   1.25894642   0.11843071
3536.00   1.21857059   0.11766907
3537.00   1.20573556   0.11858105
3538.00   1.23502123   0.11915807
3539.00   1.24879801   0.11940876
3540.00   1.23297942   0.11893851
3541.00   1.17386067   0.11708146
3542.00   1.16923356   0.11709226
3543.00   1.14353740   0.11798938
3544.00   1.09473884   0.11738995
3545.00   1.10212004   0.11648850
3546.00   1.15224349   0.11710798
3547.00   1.15605402   0.11748363
3548.00   1.25339162   0.11887746
3549.00   1.27604926   0.11918388
3550.00   1.20705187   0.11776632
3551.00   1.25105298   0.11718870
3552.00   1.27638328   0.11629149
3553.00   1.23472989   0.11470217
3554.00   1.23654830   0.11482342
3555.00   1.24826789   0.11527483
3556.00   1.31164634   0.11624167
3557.00   1.24969816   0.11445047
3558.00   1.24201417   0.11400750
3559.00   1.30503249   0.11485264
3560.00   1.17065477   0.11310567
3561.00   1.13255167   0.11286744
3562.00   1.30275977   0.11574902
3563.00   1.21290755   0.11161195
3564.00   1.07388890   0.10740577
3565.00   1.09149134   0.10474584
3566.00   1.14540899   0.10424722
3567.00   1.20375097   0.10541152
3568.00   1.24511433   0.10640284
3569.00   1.19480872   0.10482707
3570.00   1.16725242   0.10297729
3571.00   1.23558724   0.10608123
3572.00   1.23654652   0.10706337
3573.00   1.23044574   0.10741065
3574.00   1.31758118   0.11014770
3575.00   1.19864798   0.10812114
3576.00   1.15280330   0.10654087
3577.00   1.13687384   0.10530204
3578.00   1.09287274   0.10268304
3579.00   1.16148567   0.10122509
3580.00   1.24227285   0.10140309
3581.00   1.17313910   0.09900990
3582.00   1.10237253   0.09786703
3583.00   1.17584014   0.09905434
3584.00   1.19347250   0.09924276
3585.00   1.17394650   0.09833606
3586.00   1.12652612   0.09687956
3587.00   1.22203875   0.09934309
3588.00   1.20044649   0.10119475
3589.00   1.13263476   0.10276613
3590.00   1.20377803   0.10553531
3591.00   1.31713963   0.10801881
3592.00   1.26700568   0.10755802
3593.00   1.17443585   0.10582566
3594.00   1.19250369   0.10634023
3595.00   1.22478509   0.10752195
3596.00   1.11905384   0.10622185
3597.00   1.06564701   0.10539038
3598.00   1.15952396   0.10744563
3599.00   1.21146965   0.10809648
3600.00   1.12608290   0.10510417
3601.00   1.13513374   0.10394932
3602.00   1.26550007   0.10486244
3603.00   1.26225770   0.10318968
3604.00   1.24268019   0.10167566
3605.00   1.21529758   0.10110461
3606.00   1.27464640   0.10176146
3607.00   1.29973435   0.10113572
3608.00   1.26037955   0.09980409
3609.00   1.29104614   0.10004042
3610.00   1.25292385   0.09972890
3611.00   1.21813881   0.10038212
3612.00   1.27098668   0.10266484
3613.00   1.20364499   0.10228151
3614.00   1.18775809   0.10205907
3615.00   1.30838978   0.10408247
3616.00   1.33673501   0.10254926
3617.00   1.11464286   0.09608961
3618.00   1.27027988   0.09751221
3619.00   1.25086153   0.09709918
3620.00   1.22824228   0.09749267
3621.00   1.31097853   0.10176664
3622.00   1.21710300   0.10075311
3623.00   1.21459961   0.10100897
3624.00   1.27388883   0.10331032
3625.00   1.32256019   0.10458344
3626.00   1.27307928   0.10436422
3627.00   1.34506965   0.10589553
3628.00   1.28945649   0.10352233
3629.00   1.12098110   0.09802216
3630.00   1.19287360   0.09713036
3631.00   1.25596607   0.09679562
3632.00   1.24594927   0.09595048
3633.00   1.29420185   0.09776148
3634.00   1.26096261   0.09843376
3635.00   1.20383191   0.09796395
3636.00   1.20897567   0.09851665
3637.00   1.21580362   0.09965021
3638.00   1.21596801   0.10020840
3639.00   1.19218802   0.09974092
3640.00   1.13857579   0.09895526
3641.00   1.15507150   0.09877297
3642.00   1.19227386   0.09865136
3643.00   1.13691616   0.09708109
3644.00   1.15390563   0.09581362
3645.00   1.19752574   0.09525970
3646.00   1.19959748   0.09566458
3647.00   1.20544565   0.09769879
3648.00   1.21487784   0.10033367
3649.00   1.22879815   0.10216544
3650.00   1.21625590   0.10343783
3651.00   1.13470185   0.10190105
3652.00   1.24361944   0.10325667
3653.00   1.20213771   0.10200650
3654.00   1.12539148   0.10074779
3655.00   1.26549745   0.10244314
3656.00   1.30086672   0.10161853
3657.00   1.31735957   0.10107909
3658.00   1.22785425   0.09934602
3659.00   1.19948912   0.09889203
3660.00   1.21928644   0.09984647
3661.00   1.19019008   0.09957519
3662.00   1.16675961   0.09877415
3663.00   1.17728472   0.09877724
3664.00   1.23404133   0.09821554
3665.00   1.23395932   0.09670804
3666.00   1.20635581   0.09528777
3667.00   1.19436550   0.09424528
3668.00   1.13098288   0.09209738
3669.00   1.13463712   0.09231871
3670.00   1.23587024   0.09427220
3671.00   1.28435147   0.09522836
3672.00   1.21448004   0.09441420
3673.00   1.20212197   0.09407044
3674.00   1.17882049   0.09321196
3675.00   1.10579038   0.09134625
3676.00   1.16804636   0.09164531
3677.00   1.14930642   0.08987111
3678.00   1.09388006   0.08759692
3679.00   1.20584536   0.08939344
3680.00   1.21740329   0.08964241
3681.00   1.16430151   0.08898357
3682.00   1.22252452   0.09045587
3683.00   1.25810277   0.09127597
3684.00   1.24814212   0.09041739
3685.00   1.22496343   0.08850528
3686.00   1.19225252   0.08687931
3687.00   1.15133989   0.08653504
3688.00   1.16794300   0.08789488
3689.00   1.24440444   0.09035394
3690.00   1.24921227   0.09169046
3691.00   1.19747460   0.09108693
3692.00   1.20388603   0.09034962
3693.00   1.22940862   0.09036021
3694.00   1.22742355   0.08977760
3695.00   1.28469753   0.09042322
3696.00   1.27992725   0.09058721
3697.00   1.21549296   0.09014851
3698.00   1.18514252   0.09058533
3699.00   1.25816500   0.09180573
3700.00   1.24384356   0.09148609
3701.00   1.11055458   0.08847087
3702.00   1.19528604   0.08824127
3703.00   1.21647811   0.08668251
3704.00   1.26963127   0.08600366
3705.00   1.23062885   0.08427624
3706.00   1.16946149   0.08263365
3707.00   1.25246775   0.08397341
3708.00   1.26798165   0.08475852
3709.00   1.26274657   0.08591466
3710.00   1.29481804   0.08724691
3711.00   1.21179152   0.08808000
3712.00   1.18526292   0.08841853
3713.00   1.22633791   0.08879650
3714.00   1.23880076   0.08875924
3715.00   1.19667363   0.08789273
3716.00   1.22233927   0.08667251
3717.00   1.25803852   0.08493784
3718.00   1.17172158   0.08164040
3719.00   1.24408996   0.08010971
3720.00   1.31533527   0.07978386
3721.00   1.30036294   0.08003370
3722.00   1.21715617   0.08059824
3723.00   1.17552531   0.08184078
3724.00   1.22416127   0.08353902
3725.00   1.27387178   0.08463555
3726.00   1.25195396   0.08406786
3727.00   1.22056246   0.08334974
3728.00   1.18180060   0.08216864
3729.00   1.23005140   0.08275649
3730.00   1.28766668   0.08311268
3731.00   1.31751859   0.08181403
3732.00   1.26680875   0.07902503
3733.00   1.23645461   0.07690745
3734.00   1.29725277   0.07642649
3735.00   1.32240903   0.07629536
3736.00   1.24231470   0.07581377
3737.00   1.24922061   0.07751162
3738.00   1.29195273   0.08006909
3739.00   1.24697089   0.08150359
3740.00   1.30950856   0.08321062
3741.00   1.26174974   0.08148719
3742.00   1.17789090   0.07864070
3743.00   1.24373698   0.07793467
3744.00   1.29084945   0.07739752
3745.00   1.29028893   0.07643192
3746.00   1.28670931   0.07540186
3747.00   1.30002737   0.07459152
3748.00   1.32068300   0.07477510
3749.00   1.31317008   0.07542999
3750.00   1.25721502   0.07629798
3751.00   1.26398373   0.07826757
3752.00   1.24092364   0.07976498
3753.00   1.27544856   0.08164498
3754.00   1.27081597   0.08166867
3755.00   1.31954825   0.08084350
3756.00   1.29738593   0.07930267
3757.00   1.30319524   0.07790077
3758.00   1.27112448   0.07637358
3759.00   1.27677333   0.07664510
3760.00   1.29100680   0.07735315
3761.00   1.29712701   0.07755723
3762.00   1.37057424   0.07833816
3763.00   1.28842044   0.07755047
3764.00   1.23472869   0.07636922
3765.00   1.22279680   0.07570042
3766.00   1.29516602   0.07687695
3767.00   1.26169109   0.07576431
3768.00   1.27479208   0.07569596
3769.00   1.28118765   0.07644463
3770.00   1.27930498   0.07705358
3771.00   1.23366582   0.07698262
3772.00   1.24947119   0.07820166
3773.00   1.32012606   0.07931288
3774.00   1.33889079   0.07929958
3775.00   1.36918581   0.07966886
3776.00   1.34277177   0.07944325
3777.00   1.27465308   0.07869760
3778.00   1.30586815   0.07918718
3779.00   1.27714014   0.07882589
3780.00   1.29474008   0.07927550
3781.00   1.33746839   0.08009304
3782.00   1.31820524   0.07973357
3783.00   1.33283734   0.07967287
3784.00   1.33502138   0.07911054
3785.00   1.27781117   0.07703325
3786.00   1.24208152   0.07493417
3787.00   1.26371205   0.07423076
3788.00   1.26979113   0.07388341
3789.00   1.27700841   0.07433124
3790.00   1.28383744   0.07468637
3791.00   1.31335688   0.07501260
3792.00   1.34889722   0.07506451
3793.00   1.20976961   0.07242508
3794.00   1.22872007   0.07198490
3795.00   1.29715037   0.07204233
3796.00   1.23361099   0.07031631
3797.00   1.22435570   0.07009857
3798.00   1.19995511   0.06979502
3799.00   1.13741982   0.06954352
3800.00   1.22613299   0.07198209
3801.00   1.22800839   0.07339508
3802.00   1.23972178   0.07396018
3803.00   1.18947697   0.07337768
3804.00   1.18651998   0.07291707
3805.00   1.25344563   0.07315265
3806.00   1.26949751   0.07255428
3807.00   1.25812316   0.07240827
3808.00   1.26856887   0.07332530
3809.00   1.21451867   0.07303374
3810.00   1.23290336   0.07332788
3811.00   1.23866689   0.07220929
3812.00   1.24250448   0.07085124
3813.00   1.25000179   0.06969531
3814.00   1.21326232   0.06824953
3815.00   1.24501789   0.06854079
3816.00   1.29993582   0.06919629
3817.00   1.29317605   0.06914101
3818.00   1.25009799   0.06800190
3819.00   1.21203256   0.06683439
3820.00   1.27590942   0.06729860
3821.00   1.26539159   0.06700020
3822.00   1.25711870   0.06689957
3823.00   1.26283967   0.06656571
3824.00   1.22895062   0.06485305
3825.00   1.20338869   0.06327738
3826.00   1.22202110   0.06309395
3827.00   1.22314596   0.06350134
3828.00   1.20512021   0.06392172
3829.00   1.22639000   0.06439304
3830.00   1.22285414   0.06402218
3831.00   1.30311489   0.06463416
3832.00   1.42332733   0.06572805
3833.00   1.41026998   0.06552031
3834.00   1.39628017   0.06571999
3835.00   1.34458137   0.06503609
3836.00   1.30567741   0.06432581
3837.00   1.29740822   0.06382392
3838.00   1.27794278   0.06292237
3839.00   1.24084091   0.06246279
3840.00   1.26241612   0.06368614
3841.00   1.22771287   0.06436323
3842.00   1.15715492   0.06465077
3843.00   1.17879248   0.06577114
3844.00   1.23454988   0.06674115
3845.00   1.22972131   0.06666136
3846.00   1.25119400   0.06672525
3847.00   1.28642094   0.06672012
3848.00   1.24127471   0.06566091
3849.00   1.15175211   0.06425682
3850.00   1.24940288   0.06547832
3851.00   1.27006054   0.06562235
3852.00   1.14211333   0.06425171
3853.00   1.19553959   0.06475740
3854.00   1.19202209   0.06369123
3855.00   1.20474494   0.06326687
3856.00   1.19685972   0.06262165
3857.00   1.17830992   0.06163755
3858.00   1.20605326   0.06116825
3859.00   1.23239982   0.06143663
3860.00   1.27439511   0.06286231
3861.00   1.17842889   0.06285457
3862.00   1.10807884   0.06282624
3863.00   1.21802163   0.06478012
3864.00   1.24180448   0.06502575
3865.00   1.26204824   0.06487703
3866.00   1.25003099   0.06421912
3867.00   1.18548322   0.06309369
3868.00   1.16538548   0.06197068
3869.00   1.18533480   0.06120777
3870.00   1.20786273   0.06073483
3871.00   1.21480334   0.06065993
3872.00   1.26689756   0.06215639
3873.00   1.27938557   0.06346595
3874.00   1.20074272   0.06338570
3875.00   1.21158981   0.06364114
3876.00   1.20535350   0.06279984
3877.00   1.15432405   0.06139865
3878.00   1.23023891   0.06176574
3879.00   1.27785003   0.06188297
3880.00   1.22088516   0.06106422
3881.00   1.18357611   0.06093546
3882.00   1.25000608   0.06193504
3883.00   1.28520226   0.06212031
3884.00   1.26747751   0.06157303
3885.00   1.24367201   0.06099217
3886.00   1.23088884   0.06025545
3887.00   1.19949889   0.05942732
3888.00   1.16724479   0.05964492
3889.00   1.18521440   0.06075665
3890.00   1.20874858   0.06192841
3891.00   1.24504399   0.06302572
3892.00   1.23567104   0.06311101
3893.00   1.18018150   0.06252795
3894.00   1.18695211   0.06247250
3895.00   1.16837811   0.06232703
3896.00   1.20240486   0.06267206
3897.00   1.20920479   0.06285645
3898.00   1.19118738   0.06266819
3899.00   1.24241424   0.06318764
3900.00   1.24109304   0.06280168
3901.00   1.16880941   0.06186447
3902.00   1.19890797   0.06198191
3903.00   1.20002818   0.06104163
3904.00   1.13752186   0.06030040
3905.00   1.13031542   0.06071747
3906.00   1.19655657   0.06203099
3907.00   1.17658436   0.06259166
3908.00   1.16453266   0.06286628
3909.00   1.21546030   0.06395876
3910.00   1.17803621   0.06376495
3911.00   1.20323074   0.06386946
3912.00   1.21269870   0.06390663
3913.00   1.16639900   0.06303011
3914.00   1.11770904   0.06190770
3915.00   1.15255451   0.06190131
3916.00   1.18438017   0.06168432
3917.00   1.17458463   0.06099084
3918.00   1.20300627   0.06057240
3919.00   1.16682148   0.05914690
3920.00   1.14010394   0.05833819
3921.00   1.20202708   0.05885043
3922.00   1.20645690   0.05869182
3923.00   1.16501045   0.05822854
3924.00   1.14254880   0.05780303
3925.00   1.09322464   0.05661772
3926.00   1.17005539   0.05637039
3927.00   1.25625110   0.05592951
3928.00   1.18515944   0.05387060
3929.00   1.15911710   0.05260364
3930.00   1.12757170   0.05118758
3931.00   1.04287732   0.04915029
3932.00   1.07383859   0.04906306
3933.00   1.10872316   0.04939804
3934.00   1.10192525   0.04930030
3935.00   1.11250222   0.05014079
3936.00   1.16783130   0.05213427
3937.00   1.13062942   0.05269290
3938.00   1.12260342   0.05353745
3939.00   1.11745465   0.05449630
3940.00   1.15747488   0.05559390
3941.00   1.16135645   0.05556678
3942.00   1.11780262   0.05525775
3943.00   1.15548086   0.05617684
3944.00   1.19806921   0.05708993
3945.00   1.16440153   0.05708168
3946.00   1.11603940   0.05685806
3947.00   1.19406629   0.05829720
3948.00   1.21849787   0.05885241
3949.00   1.19110966   0.05867673
3950.00   1.13373542   0.05784426
3951.00   1.18481517   0.05861723
3952.00   1.15381277   0.05817934
3953.00   1.11389720   0.05742316
3954.00   1.18813109   0.05802882
3955.00   1.19849849   0.05809878
3956.00   1.15466762   0.05766833
3957.00   1.12982774   0.05725007
3958.00   1.14386034   0.05723778
3959.00   1.20981014   0.05745155
3960.00   1.23537028   0.05686334
3961.00   1.17258906   0.05492281
3962.00   1.13948846   0.05339666
3963.00   1.17375135   0.05279236
3964.00   1.14517069   0.05143717
3965.00   1.10033250   0.04975211
3966.00   1.09557343   0.04845534
3967.00   1.09140313   0.04758023
3968.00   1.13136089   0.04793945
3969.00   1.14180696   0.04844279
3970.00   1.12959349   0.04923472
3971.00   1.15001655   0.05071053
3972.00   1.12976766   0.05160573
3973.00   1.14000475   0.05264590
3974.00   1.13849139   0.05344984
3975.00   1.14858639   0.05437360
3976.00   1.18235338   0.05551480
3977.00   1.20103514   0.05653677
3978.00   1.21205246   0.05746335
3979.00   1.24677384   0.05823745
3980.00   1.16878891   0.05735784
3981.00   1.16038001   0.05712621
3982.00   1.18028593   0.05693121
3983.00   1.15371776   0.05657687
3984.00   1.15022004   0.05663612
3985.00   1.18018305   0.05697699
3986.00   1.15907621   0.05686860
3987.00   1.11517739   0.05656338
3988.00   1.19793868   0.05756931
3989.00   1.16524649   0.05745417
3990.00   1.17736006   0.05776454
3991.00   1.15316200   0.05750744
3992.00   1.10786915   0.05691106
3993.00   1.08896124   0.05665980
3994.00   1.18998873   0.05760125
3995.00   1.16820538   0.05703713
3996.00   1.13197219   0.05678699
3997.00   1.12479937   0.05695834
3998.00   1.16581106   0.05728747
3999.00   1.15347731   0.05739051
4000.00   1.10401571   0.05690950
4001.00   1.06167769   0.05632652
4002.00   1.09923708   0.05655490
4003.00   1.09180748   0.05601175
4004.00   1.10728908   0.05548569
4005.00   1.09342372   0.05495770
4006.00   1.10175860   0.05517789
4007.00   1.16318023   0.05641820
4008.00   1.15050828   0.05678808
4009.00   1.12036407   0.05671109
4010.00   1.15545416   0.05715754
4011.00   1.16510856   0.05718323
4012.00   1.13000309   0.05675607
4013.00   1.13473678   0.05685967
4014.00   1.12730050   0.05676302
4015.00   1.09783840   0.05619270
4016.00   1.12584436   0.05645502
4017.00   1.16129994   0.05702697
4018.00   1.16003144   0.05725371
4019.00   1.15589869   0.05762929
4020.00   1.16351175   0.05791417
4021.00   1.14077997   0.05756290
4022.00   1.11447549   0.05727736
4023.00   1.11235690   0.05714484
4024.00   1.09852028   0.05677505
4025.00   1.13684452   0.05696823
4026.00   1.18643522   0.05732475
4027.00   1.13577390   0.05653404
4028.00   1.11426711   0.05587475
4029.00   1.13708711   0.05540869
4030.00   1.12209892   0.05440415
4031.00   1.10841799   0.05372729
4032.00   1.15708745   0.05413623
4033.00   1.13731074   0.05419369
4034.00   1.11660337   0.05428235
4035.00   1.06696665   0.05417927
4036.00   1.06440377   0.05475013
4037.00   1.10943127   0.05545975
4038.00   1.17108595   0.05594840
4039.00   1.17813396   0.05580968
4040.00   1.11863637   0.05514113
4041.00   1.09529209   0.05479980
4042.00   1.09116733   0.05455554
4043.00   1.11217725   0.05578376
4044.00   1.02273011   0.05723673
4045.00   1.04327917   0.05891602
4046.00   1.13191271   0.06071069
4047.00   1.05319977   0.06012043
4048.00   1.08925962   0.05860068
4049.00   1.10476744   0.05646972
4050.00   1.04459333   0.05438514
4051.00   1.05713964   0.05381703
4052.00   1.09940314   0.05391086
4053.00   1.14556158   0.05413461
4054.00   1.07611740   0.05300366
4055.00   1.06241608   0.05255425
4056.00   1.12376451   0.05296275
4057.00   1.12637353   0.05287526
4058.00   1.12090647   0.05272571
4059.00   1.14603746   0.05315152
4060.00   1.14075613   0.05300787
4061.00   1.07348478   0.05177892
4062.00   1.05786610   0.05111988
4063.00   1.06439435   0.05089052
4064.00   1.08798838   0.05118709
4065.00   1.13045728   0.05196906
4066.00   1.10968959   0.05237997
4067.00   1.10261512   0.05268453
4068.00   1.11782444   0.05270336
4069.00   1.10949039   0.05234423
4070.00   1.10018492   0.05201233
4071.00   1.08127332   0.05164717
4072.00   1.08505678   0.05167551
4073.00   1.05702150   0.05155502
4074.00   1.01785779   0.05132051
4075.00   1.05771947   0.05177108
4076.00   1.06645906   0.05183599
4077.00   1.11047173   0.05222018
4078.00   1.09331477   0.05242272
4079.00   1.11925495   0.05306650
4080.00   1.11696696   0.05315219
4081.00   1.11666226   0.05321428
4082.00   1.14855587   0.05333483
4083.00   1.06185520   0.05210259
4084.00   0.99710494   0.05116588
4085.00   1.01507163   0.05142366
4086.00   1.05215704   0.05212168
4087.00   1.10300410   0.05292924
4088.00   1.10920763   0.05288381
4089.00   1.09463739   0.05247045
4090.00   1.08799505   0.05207060
4091.00   1.07958353   0.05173926
4092.00   1.10784173   0.05186870
4093.00   1.11420906   0.05173855
4094.00   1.11021292   0.05146766
4095.00   1.13385439   0.05124848
4096.00   1.10083401   0.05060925
4097.00   1.07393742   0.04997106
4098.00   1.11265194   0.04967966
4099.00   1.09060133   0.04879371
4100.00   1.05443192   0.04790175
4101.00   1.06619418   0.04775940
4102.00   1.09182930   0.04824543
4103.00   1.10626078   0.04885414
4104.00   1.11040270   0.04948971
4105.00   1.10753560   0.04990479
4106.00   1.09374952   0.05011344
4107.00   1.07657504   0.05007119
4108.00   1.10768676   0.05030953
4109.00   1.10887289   0.05021005
4110.00   1.12000060   0.05048160
4111.00   1.09294975   0.05048533
4112.00   1.03691816   0.05000834
4113.00   1.06353080   0.05047880
4114.00   1.12333155   0.05119487
4115.00   1.12226474   0.05105886
4116.00   1.10976100   0.05072498
4117.00   1.11431682   0.05045171
4118.00   1.10117233   0.04995853
4119.00   1.10343182   0.04979447
4120.00   1.06855321   0.04951148
4121.00   1.08626485   0.04981014
4122.00   1.12055755   0.05023681
4123.00   1.08813059   0.04980871
4124.00   1.07199740   0.04963321
4125.00   1.07827711   0.04952066
4126.00   1.13969219   0.04999656
4127.00   1.14247167   0.04981913
4128.00   1.15683150   0.04964853
4129.00   1.09042120   0.04886683
4130.00   1.11146283   0.04894827
4131.00   1.13792348   0.04900023
4132.00   1.04707670   0.04793990
4133.00   1.07549143   0.04829241
4134.00   1.10872936   0.04891526
4135.00   1.06892955   0.04870010
4136.00   1.06514502   0.04897830
4137.00   1.12020159   0.04975592
4138.00   1.15639293   0.05026774
4139.00   1.14486623   0.05014063
4140.00   1.11823428   0.04933767
4141.00   1.12105000   0.04883386
4142.00   1.12216938   0.04828971
4143.00   1.08973110   0.04765525
4144.00   1.10506749   0.04788503
4145.00   1.10657501   0.04818568
4146.00   1.12049699   0.04860497
4147.00   1.13806462   0.04880553
4148.00   1.09135413   0.04829675
4149.00   1.10211909   0.04843211
4150.00   1.11741006   0.04854915
4151.00   1.05513406   0.04785172
4152.00   1.06039834   0.04775203
4153.00   1.07263422   0.04761526
4154.00   1.10244310   0.04761943
4155.00   1.12688315   0.04778561
4156.00   1.08314610   0.04747265
4157.00   1.06695390   0.04742954
4158.00   1.08731794   0.04774487
4159.00   1.10863626   0.04807973
4160.00   1.13192642   0.04850344
4161.00   1.10737944   0.04846190
4162.00   1.10253716   0.04854264
4163.00   1.14142644   0.04906889
4164.00   1.11113179   0.04866740
4165.00   1.09748209   0.04833296
4166.00   1.11194050   0.04826590
4167.00   1.08618319   0.04768009
4168.00   1.09718800   0.04757491
4169.00   1.10337067   0.04739757
4170.00   1.09067118   0.04678778
4171.00   1.06458569   0.04619000
4172.00   1.05781341   0.04587186
4173.00   1.07122290   0.04586480
4174.00   1.08043718   0.04597450
4175.00   1.08921337   0.04622020
4176.00   1.06666744   0.04612471
4177.00   1.08347273   0.04633754
4178.00   1.05863225   0.04620615
4179.00   1.10059536   0.04660644
4180.00   1.15212989   0.04713628
4181.00   1.10314751   0.04635165
4182.00   1.05620301   0.04572390
4183.00   1.05711663   0.04582825
4184.00   1.02373683   0.04533560
4185.00   1.07007360   0.04579565
4186.00   1.05161965   0.04540355
4187.00   1.08500147   0.04570953
4188.00   1.07510352   0.04553413
4189.00   1.06548345   0.04549387
4190.00   1.07044458   0.04596374
4191.00   1.03111899   0.04593970
4192.00   1.03079414   0.04580074
4193.00   1.07843256   0.04629448
4194.00   1.06981897   0.04592901
4195.00   1.03596783   0.04503387
4196.00   1.06830716   0.04493458
4197.00   1.08951640   0.04499843
4198.00   1.10209990   0.04488178
4199.00   1.08800209   0.04459040
4200.00   1.05247688   0.04436503
4201.00   1.05793977   0.04461189
4202.00   1.09295785   0.04519152
4203.00   1.09455657   0.04548542
4204.00   1.07960045   0.04559229
4205.00   1.05714929   0.04560335
4206.00   1.05967331   0.04568352
4207.00   1.05485737   0.04573503
4208.00   1.05628943   0.04592526
4209.00   1.05468404   0.04585814
4210.00   1.06307101   0.04582597
4211.00   1.07785261   0.04600923
4212.00   1.05612266   0.04565780
4213.00   1.05673635   0.04528274
4214.00   1.02840102   0.04472652
4215.00   1.00305748   0.04425387
4216.00   1.01633739   0.04431862
4217.00   1.03988791   0.04472052
4218.00   1.11844504   0.04574518
4219.00   1.11418819   0.04599107
4220.00   1.04136813   0.04529640
4221.00   1.05592430   0.04513304
4222.00   1.04029644   0.04455046
4223.00   1.07511175   0.04414815
4224.00   1.10051715   0.04348976
4225.00   1.07876289   0.04283225
4226.00   1.03611636   0.04229357
4227.00   1.03067219   0.04259050
4228.00   1.02699399   0.04340477
4229.00   0.99549687   0.04372294
4230.00   1.02555490   0.04433511
4231.00   1.02626634   0.04447619
4232.00   1.02603972   0.04426418
4233.00   1.04010165   0.04412339
4234.00   1.07123601   0.04411680
4235.00   1.03567576   0.04367520
4236.00   1.01568830   0.04338836
4237.00   1.06250226   0.04384260
4238.00   1.04026306   0.04374696
4239.00   1.04842532   0.04373705
4240.00   1.03975010   0.04385537
4241.00   1.02063572   0.04386105
4242.00   1.04030478   0.04407557
4243.00   1.00037360   0.04390302
4244.00   1.00605786   0.04430588
4245.00   1.01942539   0.04442186
4246.00   1.01347697   0.04412916
4247.00   1.00311947   0.04367543
4248.00   1.01290214   0.04321230
4249.00   1.01399398   0.04299612
4250.00   1.01120460   0.04286190
4251.00   1.03037560   0.04295132
4252.00   1.03991604   0.04310671
4253.00   1.02696276   0.04307812
4254.00   1.02869451   0.04306719
4255.00   1.01721644   0.04300370
4256.00   0.97966903   0.04273158
4257.00   1.00107455   0.04274171
4258.00   1.03728807   0.04271740
4259.00   1.03838062   0.04251625
4260.00   1.02626240   0.04235783
4261.00   0.98915893   0.04231454
4262.00   0.98089880   0.04255313
4263.00   1.00309944   0.04295587
4264.00   1.01465893   0.04328541
4265.00   1.01472616   0.04332647
4266.00   0.97155416   0.04273514
4267.00   0.97742987   0.04249069
4268.00   0.98746008   0.04199875
4269.00   1.00861967   0.04158868
4270.00   0.99182385   0.04118657
4271.00   0.99672449   0.04087799
4272.00   0.98758870   0.04063024
4273.00   0.96382141   0.04054503
4274.00   0.99532539   0.04116361
4275.00   1.00863934   0.04187542
4276.00   0.97206825   0.04190379
4277.00   0.96746427   0.04194091
4278.00   1.00650501   0.04216491
4279.00   0.97732782   0.04179584
4280.00   0.94402015   0.04142528
4281.00   0.92562771   0.04119456
4282.00   0.93129593   0.04112564
4283.00   0.93633747   0.04108612
4284.00   1.02333915   0.04170199
4285.00   0.99559033   0.04141730
4286.00   0.94988197   0.04066556
4287.00   0.97033650   0.04044809
4288.00   0.97722131   0.04034083
4289.00   0.97679591   0.04031264
4290.00   1.02126062   0.04076959
4291.00   1.02244008   0.04095123
4292.00   0.95231903   0.04051862
4293.00   0.93703634   0.04032222
4294.00   0.98670560   0.04062763
4295.00   0.98204833   0.04029939
4296.00   0.98459047   0.03986347
4297.00   0.94398451   0.03895320
4298.00   0.95818233   0.03860148
4299.00   0.98210812   0.03841072
4300.00   0.96913373   0.03818037
4301.00   0.97708559   0.03830683
4302.00   0.94830281   0.03805479
4303.00   0.94449157   0.03807781
4304.00   0.98891205   0.03857016
4305.00   0.97651142   0.03838143
4306.00   0.94269836   0.03779839
4307.00   0.92901045   0.03738591
4308.00   0.94430035   0.03742381
4309.00   0.96365148   0.03783141
4310.00   0.96481335   0.03814641
4311.00   0.96018273   0.03866914
4312.00   0.94532502   0.03931970
4313.00   0.92212605   0.03994042
4314.00   0.97927427   0.04103514
4315.00   0.95673317   0.04122916
4316.00   0.92433321   0.04145944
4317.00   0.93935204   0.04186149
4318.00   0.93200809   0.04172547
4319.00   0.93923229   0.04159658
4320.00   0.94072247   0.04140064
4321.00   0.94328535   0.04092372
4322.00   0.97515285   0.04055214
4323.00   0.96193212   0.03974037
4324.00   0.94601303   0.03936968
4325.00   0.94582641   0.03933362
4326.00   0.95994991   0.03978410
4327.00   0.96588844   0.04033893
4328.00   1.00395846   0.04126231
4329.00   1.01195025   0.04161151
4330.00   0.97715133   0.04116530
4331.00   0.92410243   0.04067549
4332.00   0.97900277   0.04131093
4333.00   0.99067318   0.04147189
4334.00   0.93442738   0.04060013
4335.00   0.97666878   0.04065527
4336.00   0.97907650   0.04018853
4337.00   0.97023684   0.03942237
4338.00   0.95060456   0.03883026
4339.00   0.93652242   0.03861729
4340.00   0.92734390   0.03847215
4341.00   0.99789035   0.03938776
4342.00   0.96235728   0.03946840
4343.00   0.93913025   0.03973310
4344.00   0.98903966   0.04065493
4345.00   0.96579206   0.04086756
4346.00   0.93072575   0.04082166
4347.00   0.97215962   0.04136777
4348.00   0.98303729   0.04147422
4349.00   0.96419680   0.04104802
4350.00   0.97250271   0.04068924
4351.00   0.97230518   0.04029706
4352.00   0.95050156   0.04005056
4353.00   0.95316994   0.04052187
4354.00   0.99765587   0.04293019
4355.00   1.03376615   0.04686579
4356.00   1.03273594   0.04996160
4357.00   0.96218425   0.05136901
4358.00   0.97535056   0.05212839
4359.00   0.99843639   0.05081771
4360.00   0.93517393   0.04728828
4361.00   0.94371861   0.04514558
4362.00   1.02149260   0.04421589
4363.00   1.03348768   0.04310542
4364.00   0.98280126   0.04213578
4365.00   0.96736896   0.04169600
4366.00   0.98282069   0.04156045
4367.00   0.99482554   0.04133076
4368.00   1.00607467   0.04129696
4369.00   0.96759176   0.04094261
4370.00   0.98944551   0.04098275
4371.00   0.97524816   0.04086098
4372.00   1.00380397   0.04102406
4373.00   0.96485013   0.04058670
4374.00   0.98173493   0.04068338
4375.00   0.97505701   0.04054758
4376.00   0.96637231   0.04059254
4377.00   0.93970150   0.04030354
4378.00   0.95748413   0.04054835
4379.00   0.94949776   0.04033466
4380.00   1.00146854   0.04026664
4381.00   0.99773520   0.03953718
4382.00   0.98540705   0.03899562
4383.00   0.97588205   0.03864447
4384.00   0.94225454   0.03831474
4385.00   0.96165746   0.03877883
4386.00   0.99442130   0.03947034
4387.00   0.97915959   0.03966591
4388.00   0.95858842   0.03949772
4389.00   0.91010773   0.03902266
4390.00   0.91491151   0.03922709
4391.00   0.95502126   0.03964596
4392.00   0.95537025   0.03955867
4393.00   0.96894526   0.03976513
4394.00   0.99541843   0.04017051
4395.00   0.96348792   0.03994296
4396.00   0.94130659   0.03990221
4397.00   0.92842978   0.03989600
4398.00   0.91373211   0.03969204
4399.00   0.94978988   0.03994723
4400.00   0.95173001   0.03979651
4401.00   0.90315276   0.03907809
4402.00   0.93189716   0.03916823
4403.00   0.97095132   0.03940750
4404.00   0.93654037   0.03889042
4405.00   0.93435633   0.03881676
4406.00   0.97261977   0.03943430
4407.00   0.97571021   0.03967204
4408.00   0.95914662   0.03963651
4409.00   0.94599801   0.03979838
4410.00   0.94670647   0.04015155
4411.00   0.93964821   0.04007829
4412.00   0.93488479   0.03994037
4413.00   0.96566314   0.04009018
4414.00   0.98256379   0.03999558
4415.00   0.92804348   0.03940337
4416.00   0.89031357   0.03920664
4417.00   0.89568406   0.03948536
4418.00   0.90844744   0.03972307
4419.00   0.94544357   0.04004870
4420.00   0.95467132   0.04006066
4421.00   0.93874502   0.03982167
4422.00   0.93499440   0.03968082
4423.00   0.91764897   0.03947811
4424.00   0.91949660   0.03946908
4425.00   0.90748340   0.03934573
4426.00   0.89208227   0.03924908
4427.00   0.94525683   0.03971677
4428.00   0.93676186   0.03963182
4429.00   0.90295118   0.03928700
4430.00   0.91664487   0.03922609
4431.00   0.91986352   0.03917900
4432.00   0.91969830   0.03912362
4433.00   0.94801742   0.03921318
4434.00   0.94822323   0.03917607
4435.00   0.94840902   0.03923638
4436.00   0.92153019   0.03911183
4437.00   0.90871048   0.03915169
4438.00   0.91093785   0.03932560
4439.00   0.92058539   0.03947012
4440.00   0.92571574   0.03935438
4441.00   0.93559062   0.03920155
4442.00   0.93138182   0.03904993
4443.00   0.95248443   0.03927147
4444.00   0.96984553   0.03958589
4445.00   0.95308906   0.03954981
4446.00   0.91694736   0.03918127
4447.00   0.89106917   0.03888800
4448.00   0.94097817   0.03934442
4449.00   0.99465615   0.03983053
4450.00   0.94466126   0.03930862
4451.00   0.92561275   0.03892284
4452.00   0.94533128   0.03888724
4453.00   0.92727721   0.03850185
4454.00   0.90886045   0.03807291
4455.00   0.92411876   0.03810000
4456.00   0.91443074   0.03785119
4457.00   0.94356477   0.03820116
4458.00   0.95386475   0.03831974
4459.00   0.91887200   0.03798188
4460.00   0.88630605   0.03780087
4461.00   0.92733413   0.03831473
4462.00   0.92266995   0.03829994
4463.00   0.96623260   0.03886718
4464.00   0.98413569   0.03905075
4465.00   0.99062544   0.03913882
4466.00   0.92883974   0.03846074
4467.00   0.93353474   0.03856496
4468.00   0.89844352   0.03816105
4469.00   0.89088315   0.03815209
4470.00   0.91011393   0.03840496
4471.00   0.94890475   0.03887781
4472.00   0.96626061   0.03909199
4473.00   0.95751882   0.03903401
4474.00   0.92844725   0.03892443
4475.00   0.94915348   0.03909785
4476.00   0.96016252   0.03917624
4477.00   0.92565423   0.03878216
4478.00   0.93263024   0.03867699
4479.00   0.93352354   0.03832771
4480.00   0.91633666   0.03804202
4481.00   0.91428524   0.03804331
4482.00   0.91821408   0.03816235
4483.00   0.94117206   0.03856601
4484.00   0.94259894   0.03876445
4485.00   0.93648297   0.03880615
4486.00   0.93554729   0.03883093
4487.00   0.93700570   0.03870367
4488.00   0.92544425   0.03839239
4489.00   0.93527704   0.03834790
4490.00   0.96098703   0.03853842
4491.00   0.95156109   0.03849652
4492.00   0.92658645   0.03829411
4493.00   0.91368967   0.03810124
4494.00   0.89993232   0.03794248
4495.00   0.89992607   0.03804066
4496.00   0.92111135   0.03836349
4497.00   0.94354892   0.03859584
4498.00   0.93571329   0.03849140
4499.00   0.91232449   0.03830727
4500.00   0.92870843   0.03844277
4501.00   0.93924552   0.03850793
4502.00   0.92591208   0.03847055
4503.00   0.90836602   0.03843767
4504.00   0.90446150   0.03847498
4505.00   0.93225002   0.03868109
4506.00   0.91345233   0.03847904
4507.00   0.93496174   0.03868008
4508.00   0.95389819   0.03878445
4509.00   0.95876133   0.03867870
4510.00   0.94448519   0.03857213
4511.00   0.91093379   0.03820885
4512.00   0.90361190   0.03806969
4513.00   0.95626974   0.03841193
4514.00   0.90041560   0.03769223
4515.00   0.86693549   0.03734394
4516.00   0.88425696   0.03754057
4517.00   0.88933474   0.03763121
4518.00   0.92811364   0.03789252
4519.00   0.96260518   0.03825114
4520.00   0.91349685   0.03765235
4521.00   0.90480554   0.03757516
4522.00   0.94777489   0.03789124
4523.00   0.91052663   0.03744892
4524.00   0.91232890   0.03733918
4525.00   0.90449440   0.03702996
4526.00   0.89180994   0.03658968
4527.00   0.87012142   0.03630039
4528.00   0.91233897   0.03656539
4529.00   0.89783126   0.03642801
4530.00   0.90611297   0.03664625
4531.00   0.91155964   0.03672238
4532.00   0.88924378   0.03652115
4533.00   0.88554204   0.03646735
4534.00   0.88033378   0.03645505
4535.00   0.87506890   0.03649873
4536.00   0.89781910   0.03690564
4537.00   0.89044368   0.03701589
4538.00   0.87762094   0.03693464
4539.00   0.89009881   0.03699699
4540.00   0.88606155   0.03690055
4541.00   0.87042344   0.03675748
4542.00   0.87537831   0.03684320
4543.00   0.89717555   0.03701577
4544.00   0.89196378   0.03684638
4545.00   0.90095109   0.03681237
4546.00   0.90530300   0.03676672
4547.00   0.89083749   0.03652318
4548.00   0.89629698   0.03647221
4549.00   0.86701393   0.03613517
4550.00   0.86432821   0.03609272
4551.00   0.89688969   0.03640993
4552.00   0.88392919   0.03626608
4553.00   0.89181191   0.03628387
4554.00   0.92989492   0.03664473
4555.00   0.94145119   0.03688019
4556.00   0.89351821   0.03652662
4557.00   0.87045002   0.03634514
4558.00   0.91567600   0.03686542
4559.00   0.93406487   0.03707771
4560.00   0.89910346   0.03673672
4561.00   0.90799570   0.03677043
4562.00   0.89648902   0.03656902
4563.00   0.87932098   0.03622413
4564.00   0.87216908   0.03610853
4565.00   0.92250800   0.03653241
4566.00   0.92726511   0.03664305
4567.00   0.88803136   0.03638165
4568.00   0.89405513   0.03632396
4569.00   0.89924181   0.03633223
4570.00   0.89415872   0.03632262
4571.00   0.92096001   0.03650263
4572.00   0.88748312   0.03621120
4573.00   0.86810029   0.03605240
4574.00   0.88245302   0.03629931
4575.00   0.88726997   0.03633506
4576.00   0.87306952   0.03602349
4577.00   0.85298395   0.03569198
4578.00   0.87102431   0.03580186
4579.00   0.90285462   0.03593285
4580.00   0.88581514   0.03561357
4581.00   0.88563442   0.03552972
4582.00   0.89905161   0.03561058
4583.00   0.88074231   0.03542151
4584.00   0.87531036   0.03540737
4585.00   0.87392902   0.03542208
4586.00   0.86296010   0.03540299
4587.00   0.87068999   0.03560173
4588.00   0.87755436   0.03572352
4589.00   0.85295534   0.03548272
4590.00   0.85570341   0.03545339
4591.00   0.87290186   0.03552688
4592.00   0.88124549   0.03544330
4593.00   0.88969886   0.03544664
4594.00   0.87103885   0.03530992
4595.00   0.86480832   0.03520912
4596.00   0.87683779   0.03533127
4597.00   0.88544518   0.03538512
4598.00   0.88516521   0.03528858
4599.00   0.85830796   0.03508718
4600.00   0.85811734   0.03511921
4601.00   0.89787817   0.03546174
4602.00   0.88972908   0.03540241
4603.00   0.86852485   0.03523649
4604.00   0.89209557   0.03543863
4605.00   0.92148185   0.03581385
4606.00   0.90409672   0.03571353
4607.00   0.84650713   0.03521356
4608.00   0.83188248   0.03509446
4609.00   0.85334331   0.03531940
4610.00   0.89924181   0.03566321
4611.00   0.90253800   0.03568261
4612.00   0.88374197   0.03544188
4613.00   0.87866616   0.03539706
4614.00   0.88111413   0.03542120
4615.00   0.89725095   0.03537235
4616.00   0.86895418   0.03512798
4617.00   0.86476117   0.03517922
4618.00   0.85314626   0.03513039
4619.00   0.87301427   0.03523297
4620.00   0.89177287   0.03543104
4621.00   0.89541191   0.03542176
4622.00   0.85479116   0.03500174
4623.00   0.83775818   0.03493017
4624.00   0.85686100   0.03507424
4625.00   0.88184434   0.03525734
4626.00   0.89380771   0.03536036
4627.00   0.89936376   0.03543134
4628.00   0.86716211   0.03516181
4629.00   0.84647954   0.03490714
4630.00   0.88308090   0.03515635
4631.00   0.91230625   0.03544100
4632.00   0.90522778   0.03547016
4633.00   0.87626803   0.03518490
4634.00   0.85411906   0.03486373
4635.00   0.84962016   0.03474141
4636.00   0.86145854   0.03473864
4637.00   0.87660176   0.03470562
4638.00   0.88373595   0.03469319
4639.00   0.87984121   0.03470974
4640.00   0.85979158   0.03464507
4641.00   0.87244177   0.03488266
4642.00   0.89000934   0.03500426
4643.00   0.87216413   0.03467916
4644.00   0.83903116   0.03426503
4645.00   0.85887623   0.03441856
4646.00   0.86934197   0.03444623
4647.00   0.87895775   0.03445084
4648.00   0.85409993   0.03427677
4649.00   0.81044799   0.03395368
4650.00   0.86393213   0.03450140
4651.00   0.86087322   0.03451722
4652.00   0.85519671   0.03440942
4653.00   0.87652612   0.03462775
4654.00   0.85724103   0.03443055
4655.00   0.83674622   0.03424324
4656.00   0.86033475   0.03462644
4657.00   0.86178356   0.03471811
4658.00   0.83663219   0.03447068
4659.00   0.84957063   0.03463253
4660.00   0.83703774   0.03452802
4661.00   0.85926419   0.03471785
4662.00   0.87470639   0.03478890
4663.00   0.85903805   0.03451466
4664.00   0.85948217   0.03429030
4665.00   0.86337042   0.03412196
4666.00   0.84969175   0.03399494
4667.00   0.83741927   0.03388759
4668.00   0.85913789   0.03411098
4669.00   0.83366770   0.03403987
4670.00   0.79669589   0.03379299
4671.00   0.84916258   0.03426269
4672.00   0.87149626   0.03453007
4673.00   0.84324718   0.03437340
4674.00   0.84515411   0.03435734
4675.00   0.83440590   0.03417835
4676.00   0.85757291   0.03434643
4677.00   0.87306774   0.03433853
4678.00   0.86535728   0.03414361
4679.00   0.85376453   0.03400379
4680.00   0.83778328   0.03383857
4681.00   0.83150393   0.03375198
4682.00   0.86062759   0.03409080
4683.00   0.89319640   0.03442692
4684.00   0.86164027   0.03409239
4685.00   0.81801963   0.03363660
4686.00   0.82648420   0.03377765
4687.00   0.84624088   0.03397946
4688.00   0.82669508   0.03375725
4689.00   0.85132080   0.03385837
4690.00   0.86897808   0.03402252
4691.00   0.84964848   0.03379090
4692.00   0.83294040   0.03361627
4693.00   0.83776563   0.03371678
4694.00   0.84961903   0.03379953
4695.00   0.84654182   0.03370796
4696.00   0.85082930   0.03367969
4697.00   0.85750937   0.03370464
4698.00   0.84864402   0.03357577
4699.00   0.85063571   0.03341404
4700.00   0.85248655   0.03322065
4701.00   0.85108984   0.03317749
4702.00   0.87111866   0.03341799
4703.00   0.88696051   0.03356314
4704.00   0.86595064   0.03345447
4705.00   0.83470678   0.03321328
4706.00   0.85505706   0.03343610
4707.00   0.81332153   0.03309656
4708.00   0.82808667   0.03314521
4709.00   0.85695547   0.03351717
4710.00   0.81245399   0.03316690
4711.00   0.85183579   0.03352945
4712.00   0.84758860   0.03353734
4713.00   0.84497350   0.03349391
4714.00   0.83834648   0.03338541
4715.00   0.81284678   0.03319053
4716.00   0.81541675   0.03334757
4717.00   0.83772296   0.03359889
4718.00   0.82047784   0.03350083
4719.00   0.81010312   0.03340659
4720.00   0.82108080   0.03349622
4721.00   0.84158581   0.03371248
4722.00   0.83370441   0.03364087
4723.00   0.81547385   0.03347655
4724.00   0.83645660   0.03362951
4725.00   0.86322975   0.03382064
4726.00   0.82896101   0.03350035
4727.00   0.80160832   0.03316467
4728.00   0.82423079   0.03331321
4729.00   0.82450253   0.03330078
4730.00   0.81388062   0.03314580
4731.00   0.82553869   0.03332772
4732.00   0.83563107   0.03351353
4733.00   0.82246757   0.03341420
4734.00   0.80289853   0.03330562
4735.00   0.80145228   0.03335306
4736.00   0.83663452   0.03366681
4737.00   0.84671229   0.03384142
4738.00   0.79346687   0.03339332
4739.00   0.80032367   0.03349972
4740.00   0.81397885   0.03374277
4741.00   0.84357637   0.03414675
4742.00   0.83831561   0.03410054
4743.00   0.81345195   0.03384626
4744.00   0.81100518   0.03378724
4745.00   0.82477987   0.03368672
4746.00   0.81803101   0.03344416
4747.00   0.80734509   0.03322738
4748.00   0.81126583   0.03328324
4749.00   0.83765864   0.03346992
4750.00   0.85292584   0.03358778
4751.00   0.86658233   0.03368183
4752.00   0.87543738   0.03367572
4753.00   0.83973873   0.03323955
4754.00   0.80007970   0.03278728
4755.00   0.78843051   0.03259064
4756.00   0.81174320   0.03281352
4757.00   0.83943510   0.03315108
4758.00   0.81403768   0.03283343
4759.00   0.80767822   0.03265024
4760.00   0.81368881   0.03263081
4761.00   0.77841598   0.03227042
4762.00   0.79379094   0.03237917
4763.00   0.80544758   0.03237002
4764.00   0.81538743   0.03234512
4765.00   0.78601539   0.03202644
4766.00   0.78006291   0.03207330
4767.00   0.81934887   0.03250430
4768.00   0.83095539   0.03262169
4769.00   0.79680252   0.03223548
4770.00   0.79873669   0.03232200
4771.00   0.81428850   0.03254909
4772.00   0.80182296   0.03249895
4773.00   0.78366178   0.03236882
4774.00   0.78091121   0.03236802
4775.00   0.80926317   0.03271453
4776.00   0.81023395   0.03278832
4777.00   0.80715108   0.03277670
4778.00   0.81054282   0.03284913
4779.00   0.79183912   0.03265458
4780.00   0.80356187   0.03263118
4781.00   0.82029742   0.03270156
4782.00   0.80123657   0.03249301
4783.00   0.78733993   0.03225864
4784.00   0.77890325   0.03206747
4785.00   0.77205038   0.03193891
4786.00   0.78476393   0.03204313
4787.00   0.80238909   0.03218651
4788.00   0.79297882   0.03203157
4789.00   0.78106511   0.03199233
4790.00   0.76355857   0.03197931
4791.00   0.76572835   0.03192685
4792.00   0.81345177   0.03238102
4793.00   0.81417918   0.03248412
4794.00   0.78887528   0.03230988
4795.00   0.78513867   0.03239480
4796.00   0.79847956   0.03234842
4797.00   0.78038239   0.03199228
4798.00   0.76411670   0.03178408
4799.00   0.73922241   0.03162389
4800.00   0.74355668   0.03162356
4801.00   0.77281302   0.03195530
4802.00   0.79957265   0.03215038
4803.00   0.80108935   0.03209491
4804.00   0.77375972   0.03190382
4805.00   0.77614909   0.03187576
4806.00   0.77929157   0.03186579
4807.00   0.78544104   0.03189147
4808.00   0.79427397   0.03193139
4809.00   0.80340171   0.03206361
4810.00   0.81346899   0.03223684
4811.00   0.77575642   0.03197655
4812.00   0.76252806   0.03178043
4813.00   0.76122659   0.03181286
4814.00   0.78854513   0.03219872
4815.00   0.77098328   0.03212710
4816.00   0.78147739   0.03223169
4817.00   0.77442366   0.03210195
4818.00   0.75462812   0.03187304
4819.00   0.76258320   0.03192606
4820.00   0.77724987   0.03197578
4821.00   0.76567107   0.03177479
4822.00   0.76083964   0.03172813
4823.00   0.76387447   0.03171617
4824.00   0.76392192   0.03170794
4825.00   0.77587968   0.03183800
4826.00   0.77540046   0.03181993
4827.00   0.76540309   0.03179359
4828.00   0.76076168   0.03176333
4829.00   0.77093607   0.03180262
4830.00   0.78707820   0.03191678
4831.00   0.79220051   0.03194406
4832.00   0.79569077   0.03197741
4833.00   0.79026538   0.03189246
4834.00   0.78682679   0.03185766
4835.00   0.80632353   0.03207210
4836.00   0.80918121   0.03207147
4837.00   0.79801160   0.03192231
4838.00   0.80055934   0.03184143
4839.00   0.79566997   0.03181362
4840.00   0.80442494   0.03186538
4841.00   0.77194047   0.03150149
4842.00   0.78266621   0.03163609
4843.00   0.74450463   0.03118915
4844.00   0.77078843   0.03154490
4845.00   0.78503191   0.03170967
4846.00   0.78746617   0.03169256
4847.00   0.81092924   0.03188679
4848.00   0.78708142   0.03165637
4849.00   0.78304219   0.03165532
4850.00   0.77626532   0.03151023
4851.00   0.79740846   0.03160798
4852.00   0.80508351   0.03159562
4853.00   0.79622865   0.03139247
4854.00   0.79880220   0.03131166
4855.00   0.78576547   0.03096924
4856.00   0.78393739   0.03067172
4857.00   0.79950076   0.03058496
4858.00   0.78818846   0.03025664
4859.00   0.76210427   0.02982393
4860.00   0.76576644   0.02963797
4861.00   0.79758847   0.02988013
4862.00   0.77025282   0.02976473
4863.00   0.76242709   0.02990072
4864.00   0.81164050   0.03055548
4865.00   0.84820718   0.03110282
4866.00   0.84066635   0.03119016
4867.00   0.78246933   0.03076725
4868.00   0.77497023   0.03063086
4869.00   0.78898090   0.03065194
4870.00   0.81254119   0.03086149
4871.00   0.81613946   0.03089700
4872.00   0.79529369   0.03071928
4873.00   0.78046596   0.03073204
4874.00   0.79781014   0.03102986
4875.00   0.79913825   0.03110246
4876.00   0.77557164   0.03092630
4877.00   0.78315377   0.03099863
4878.00   0.80104285   0.03123677
4879.00   0.79574567   0.03130229
4880.00   0.79173237   0.03126434
4881.00   0.79957485   0.03126064
4882.00   0.79793608   0.03113207
4883.00   0.78905201   0.03093376
4884.00   0.80287379   0.03102600
4885.00   0.80733693   0.03099015
4886.00   0.80117226   0.03084775
4887.00   0.78455800   0.03064201
4888.00   0.79373831   0.03057906
4889.00   0.77329856   0.03034803
4890.00   0.79025841   0.03062628
4891.00   0.79423434   0.03069488
4892.00   0.79394811   0.03079661
4893.00   0.79269403   0.03098409
4894.00   0.76510739   0.03087297
4895.00   0.78751719   0.03116535
4896.00   0.78678995   0.03120364
4897.00   0.76962960   0.03097294
4898.00   0.76696318   0.03090445
4899.00   0.80498159   0.03120460
4900.00   0.81153131   0.03121473
4901.00   0.75387436   0.03066649
4902.00   0.76156211   0.03069226
4903.00   0.81154245   0.03116485
4904.00   0.81252754   0.03118182
4905.00   0.81550527   0.03119209
4906.00   0.81199586   0.03112832
4907.00   0.80467206   0.03102878
4908.00   0.80335361   0.03092229
4909.00   0.78372914   0.03066110
4910.00   0.78124213   0.03056314
4911.00   0.80375648   0.03084522
4912.00   0.76983404   0.03061519
4913.00   0.76733816   0.03057539
4914.00   0.78233588   0.03070966
4915.00   0.79219091   0.03075627
4916.00   0.79205561   0.03058129
4917.00   0.78628713   0.03031326
4918.00   0.80253392   0.03029909
4919.00   0.79844606   0.03017798
4920.00   0.79123652   0.03011482
4921.00   0.81393266   0.03034853
4922.00   0.82234401   0.03045503
4923.00   0.80618590   0.03036330
4924.00   0.77777547   0.03023301
4925.00   0.77426612   0.03039688
4926.00   0.79676706   0.03066237
4927.00   0.81188285   0.03076895
4928.00   0.81530756   0.03086309
4929.00   0.77724075   0.03053857
4930.00   0.79985553   0.03071586
4931.00   0.80058473   0.03061953
4932.00   0.80082434   0.03051114
4933.00   0.79985726   0.03048648
4934.00   0.79620051   0.03039966
4935.00   0.78311110   0.03016449
4936.00   0.78010583   0.03008391
4937.00   0.79372954   0.03018174
4938.00   0.77999133   0.03015721
4939.00   0.76506108   0.03008460
4940.00   0.76806188   0.03021591
4941.00   0.78145730   0.03042999
4942.00   0.79236519   0.03056674
4943.00   0.78368109   0.03048549
4944.00   0.77898550   0.03042801
4945.00   0.80245739   0.03061500
4946.00   0.81208652   0.03069819
4947.00   0.79287553   0.03065646
4948.00   0.77635628   0.03053084
4949.00   0.75783044   0.03024221
4950.00   0.76411033   0.03033303
4951.00   0.80382711   0.03080174
4952.00   0.81550068   0.03084966
4953.00   0.82413626   0.03077518
4954.00   0.80253959   0.03036078
4955.00   0.77108473   0.02990668
4956.00   0.78646809   0.03003018
4957.00   0.78454512   0.02997883
4958.00   0.77410966   0.02995060
4959.00   0.78625596   0.03024337
4960.00   0.80790710   0.03050301
4961.00   0.79562849   0.03040755
4962.00   0.77329278   0.03027998
4963.00   0.78476596   0.03042491
4964.00   0.79574454   0.03046862
4965.00   0.77928925   0.03025763
4966.00   0.77495307   0.03023124
4967.00   0.80258012   0.03051152
4968.00   0.82181591   0.03068029
4969.00   0.81685424   0.03059511
4970.00   0.77951461   0.03030800
4971.00   0.75536776   0.03020026
4972.00   0.78245443   0.03053193
4973.00   0.79258406   0.03074766
4974.00   0.77861464   0.03060759
4975.00   0.75895643   0.03048886
4976.00   0.79387861   0.03078377
4977.00   0.80069256   0.03096400
4978.00   0.78404242   0.03092970
4979.00   0.77337718   0.03077616
4980.00   0.75302863   0.03055050
4981.00   0.75166923   0.03048665
4982.00   0.75119132   0.03044130
4983.00   0.75773394   0.03035402
4984.00   0.79897439   0.03066182
4985.00   0.80726320   0.03089070
4986.00   0.75306445   0.03043509
4987.00   0.74785006   0.03030448
4988.00   0.78874958   0.03060127
4989.00   0.77686292   0.03044555
4990.00   0.79006749   0.03063002
4991.00   0.78661686   0.03052461
4992.00   0.76694447   0.03029129
4993.00   0.73982984   0.03002095
4994.00   0.75134212   0.02996971
4995.00   0.78469998   0.03021130
4996.00   0.78703606   0.03023047
4997.00   0.76926410   0.02997641
4998.00   0.78253168   0.02998565
4999.00   0.83240336   0.03041080
5000.00   0.86283714   0.03066220
5001.00   0.82086819   0.03020290
5002.00   0.79885650   0.02989037
5003.00   0.79844600   0.02978854
5004.00   0.77611059   0.02952180
5005.00   0.76157027   0.02933422
5006.00   0.76380879   0.02933573
5007.00   0.78672767   0.02959063
5008.00   0.77465713   0.02953162
5009.00   0.75247616   0.02934127
5010.00   0.75541747   0.02929138
5011.00   0.76662999   0.02930523
5012.00   0.77644902   0.02934884
5013.00   0.75474727   0.02908726
5014.00   0.74120533   0.02896045
5015.00   0.75709397   0.02915064
5016.00   0.76765746   0.02930809
5017.00   0.75943500   0.02918159
5018.00   0.75873959   0.02912254
5019.00   0.76511359   0.02923869
5020.00   0.76018751   0.02924051
5021.00   0.77466398   0.02943340
5022.00   0.77418458   0.02946274
5023.00   0.74381661   0.02915221
5024.00   0.73076123   0.02901686
5025.00   0.71531910   0.02885525
5026.00   0.71574533   0.02885989
5027.00   0.73427862   0.02907891
5028.00   0.71637195   0.02894528
5029.00   0.74306691   0.02930412
5030.00   0.75416273   0.02951668
5031.00   0.76838517   0.02965740
5032.00   0.74545932   0.02935869
5033.00   0.75034136   0.02939581
5034.00   0.74496228   0.02921393
5035.00   0.77370799   0.02937716
5036.00   0.76339179   0.02928223
5037.00   0.75975555   0.02914986
5038.00   0.74450302   0.02887650
5039.00   0.75726467   0.02884279
5040.00   0.76571923   0.02890091
5041.00   0.76600897   0.02896105
5042.00   0.75960648   0.02900815
5043.00   0.74136716   0.02897854
5044.00   0.75554055   0.02917781
5045.00   0.78009206   0.02943997
5046.00   0.76803219   0.02926863
5047.00   0.73518616   0.02895059
5048.00   0.73773849   0.02892171
5049.00   0.76268619   0.02912032
5050.00   0.71986592   0.02874639
5051.00   0.70602065   0.02862306
5052.00   0.76013720   0.02926565
5053.00   0.77041531   0.02941849
5054.00   0.77105623   0.02939507
5055.00   0.78512853   0.02956993
5056.00   0.77744627   0.02958760
5057.00   0.79686838   0.02975826
5058.00   0.78035414   0.02955511
5059.00   0.74130601   0.02920330
5060.00   0.74934727   0.02932015
5061.00   0.76349783   0.02945580
5062.00   0.74426055   0.02920142
5063.00   0.71356273   0.02883355
5064.00   0.74705821   0.02912691
5065.00   0.80407488   0.02966936
5066.00   0.77365911   0.02943010
5067.00   0.75191039   0.02924552
5068.00   0.76640469   0.02943475
5069.00   0.74758536   0.02931706
5070.00   0.72616118   0.02917985
5071.00   0.74182433   0.02918101
5072.00   0.77097601   0.02932271
5073.00   0.72706735   0.02891538
5074.00   0.73339093   0.02902278
5075.00   0.76664639   0.02919449
5076.00   0.76618671   0.02912639
5077.00   0.76577294   0.02917423
5078.00   0.76481050   0.02915191
5079.00   0.73293114   0.02885912
5080.00   0.74018168   0.02912900
5081.00   0.76767009   0.02971672
5082.00   0.72551477   0.02951306
5083.00   0.71055633   0.02943563
5084.00   0.74645746   0.02988113
5085.00   0.76182449   0.03003720
5086.00   0.76605499   0.03005574
5087.00   0.74138153   0.02972200
5088.00   0.70527345   0.02929755
5089.00   0.71459049   0.02925422
5090.00   0.72459388   0.02918739
5091.00   0.74020213   0.02918953
5092.00   0.73816019   0.02917589
5093.00   0.73881465   0.02909251
5094.00   0.72691458   0.02886754
5095.00   0.71993536   0.02876357
5096.00   0.73839545   0.02884963
5097.00   0.74737942   0.02890545
5098.00   0.77585888   0.02922846
5099.00   0.83244199   0.02977321
5100.00   0.83706814   0.02981641
5101.00   0.80321431   0.02947024
5102.00   0.77586162   0.02918427
5103.00   0.77125663   0.02908330
5104.00   0.77481478   0.02905829
5105.00   0.74160409   0.02869424
5106.00   0.72794652   0.02848875
5107.00   0.74492502   0.02859386
5108.00   0.74592137   0.02860275
5109.00   0.74446994   0.02859898
5110.00   0.73718423   0.02854419
5111.00   0.71562815   0.02837746
5112.00   0.71584886   0.02842716
5113.00   0.73744553   0.02862038
5114.00   0.74006891   0.02866992
5115.00   0.71219277   0.02850046
5116.00   0.68832463   0.02830202
5117.00   0.69908953   0.02834658
5118.00   0.72180301   0.02854616
5119.00   0.73513889   0.02861866
5120.00   0.75116223   0.02859824
5121.00   0.76432937   0.02862761
5122.00   0.75435495   0.02848911
5123.00   0.74254847   0.02828399
5124.00   0.73533499   0.02815948
5125.00   0.70427078   0.02782402
5126.00   0.70031226   0.02782366
5127.00   0.70957690   0.02787940
5128.00   0.73036659   0.02809070
5129.00   0.71789789   0.02798326
5130.00   0.73855251   0.02815874
5131.00   0.73385113   0.02814250
5132.00   0.71880794   0.02798801
5133.00   0.74399692   0.02819152
5134.00   0.73465073   0.02811485
5135.00   0.71156073   0.02790584
5136.00   0.71216553   0.02791977
5137.00   0.69924307   0.02772144
5138.00   0.70831847   0.02765999
5139.00   0.70599252   0.02761558
5140.00   0.72048008   0.02774354
5141.00   0.71218282   0.02768232
5142.00   0.71229941   0.02760393
5143.00   0.72493309   0.02776474
5144.00   0.73122966   0.02790565
5145.00   0.70683974   0.02769759
5146.00   0.72099602   0.02784967
5147.00   0.77914941   0.02846889
5148.00   0.88095456   0.02961905
5149.00   0.96873307   0.03058232
5150.00   0.97255051   0.03056145
5151.00   0.91724598   0.03001430
5152.00   0.85364544   0.02945946
5153.00   0.82257688   0.02910820
5154.00   0.81305891   0.02898223
5155.00   0.78433776   0.02879813
5156.00   0.75576413   0.02852490
5157.00   0.75093877   0.02834864
5158.00   0.76142210   0.02837184
5159.00   0.73767996   0.02813945
5160.00   0.70943034   0.02777646
5161.00   0.71266460   0.02770029
5162.00   0.72544956   0.02764854
5163.00   0.70849794   0.02737154
5164.00   0.70319360   0.02708833
5165.00   0.69939601   0.02684011
5166.00   0.70752257   0.02677082
5167.00   0.73068529   0.02685235
5168.00   0.72210640   0.02669848
5169.00   0.71329165   0.02651122
5170.00   0.72619450   0.02652189
5171.00   0.71375716   0.02638582
5172.00   0.71530908   0.02646529
5173.00   0.72928667   0.02685250
5174.00   0.72494590   0.02701450
5175.00   0.71717620   0.02700626
5176.00   0.69411182   0.02703873
5177.00   0.70231277   0.02726034
5178.00   0.70192558   0.02718831
5179.00   0.68380064   0.02689581
5180.00   0.69547516   0.02681362
5181.00   0.69355899   0.02654772
5182.00   0.68566507   0.02631996
5183.00   0.71719575   0.02660146
5184.00   0.71722418   0.02664774
5185.00   0.69670260   0.02655754
5186.00   0.71586382   0.02685230
5187.00   0.71085715   0.02687460
5188.00   0.69885695   0.02686346
5189.00   0.71260184   0.02705750
5190.00   0.72090197   0.02715466
5191.00   0.73400587   0.02721130
5192.00   0.71670294   0.02706884
5193.00   0.69997817   0.02699435
5194.00   0.69507182   0.02695817
5195.00   0.70079726   0.02710020
5196.00   0.70400870   0.02724054
5197.00   0.69521427   0.02718963
5198.00   0.68809831   0.02711160
5199.00   0.69172084   0.02719354
5200.00   0.70826256   0.02737812
5201.00   0.69889832   0.02717697
5202.00   0.69001979   0.02699599
5203.00   0.70620900   0.02709418
5204.00   0.69937688   0.02694254
5205.00   0.69706661   0.02689562
5206.00   0.69831645   0.02690558
5207.00   0.70318437   0.02695208
5208.00   0.70026773   0.02696799
5209.00   0.70075399   0.02703258
5210.00   0.68716317   0.02703813
5211.00   0.68803376   0.02706522
5212.00   0.70489705   0.02710231
5213.00   0.70980060   0.02704093
5214.00   0.68289745   0.02677738
5215.00   0.68830377   0.02685245
5216.00   0.69788432   0.02702878
5217.00   0.67510098   0.02683956
5218.00   0.68840164   0.02693298
5219.00   0.70171577   0.02704991
5220.00   0.67182076   0.02677254
5221.00   0.67671484   0.02687432
5222.00   0.67732239   0.02679175
5223.00   0.69171071   0.02684258
5224.00   0.71435839   0.02683802
5225.00   0.71539938   0.02666721
5226.00   0.68459255   0.02641238
5227.00   0.68737400   0.02650004
5228.00   0.70146865   0.02658293
5229.00   0.70389730   0.02659977
5230.00   0.71263248   0.02672669
5231.00   0.72274333   0.02691504
5232.00   0.70060962   0.02665311
5233.00   0.68206203   0.02642130
5234.00   0.68585551   0.02653996
5235.00   0.68228322   0.02656556
5236.00   0.67595941   0.02655870
5237.00   0.66439688   0.02649831
5238.00   0.65767878   0.02647534
5239.00   0.68074697   0.02671287
5240.00   0.67361790   0.02667148
5241.00   0.67719603   0.02669000
5242.00   0.68500727   0.02677280
5243.00   0.67872578   0.02666436
5244.00   0.65902716   0.02642191
5245.00   0.66334343   0.02646076
5246.00   0.67870629   0.02660522
5247.00   0.66706347   0.02647402
5248.00   0.66853935   0.02642365
5249.00   0.68591380   0.02648755
5250.00   0.68614191   0.02647433
5251.00   0.68912059   0.02653595
5252.00   0.69909745   0.02660313
5253.00   0.68769985   0.02652138
5254.00   0.66283643   0.02634354
5255.00   0.67126977   0.02641069
5256.00   0.68886411   0.02661581
5257.00   0.68759590   0.02661413
5258.00   0.69911927   0.02673853
5259.00   0.67598295   0.02644112
5260.00   0.66541463   0.02617138
5261.00   0.68349051   0.02621582
5262.00   0.69118983   0.02613070
5263.00   0.70309359   0.02615666
5264.00   0.69801277   0.02598820
5265.00   0.68653703   0.02575058
5266.00   0.69383043   0.02574582
5267.00   0.69373137   0.02567274
5268.00   0.66541344   0.02538371
5269.00   0.64695883   0.02520723
5270.00   0.66909337   0.02544097
5271.00   0.65000373   0.02538056
5272.00   0.62035334   0.02519548
5273.00   0.65186781   0.02549780
5274.00   0.66010004   0.02567662
5275.00   0.68464512   0.02603457
5276.00   0.67423308   0.02606326
5277.00   0.68327630   0.02608742
5278.00   0.66825217   0.02594399
5279.00   0.65568119   0.02584323
5280.00   0.64997160   0.02572060
5281.00   0.65698880   0.02573578
5282.00   0.67638969   0.02594908
5283.00   0.67709976   0.02602156
5284.00   0.67115188   0.02604368
5285.00   0.66218340   0.02604133
5286.00   0.67121392   0.02613687
5287.00   0.68920130   0.02633081
5288.00   0.67498928   0.02621004
5289.00   0.67010766   0.02608528
5290.00   0.66913116   0.02614611
5291.00   0.65683818   0.02603668
5292.00   0.65734118   0.02602158
5293.00   0.67237163   0.02612481
5294.00   0.68024749   0.02612192
5295.00   0.68672580   0.02612036
5296.00   0.67554063   0.02593446
5297.00   0.65077394   0.02568302
5298.00   0.65006125   0.02569573
5299.00   0.65986538   0.02576008
5300.00   0.64310640   0.02558517
5301.00   0.64182544   0.02556925
5302.00   0.66068608   0.02579608
5303.00   0.65491724   0.02583032
5304.00   0.65916377   0.02586957
5305.00   0.65760708   0.02586574
5306.00   0.65526378   0.02589362
5307.00   0.66866517   0.02606025
5308.00   0.68742353   0.02619279
5309.00   0.66240984   0.02595264
5310.00   0.64329368   0.02584606
5311.00   0.65567321   0.02601499
5312.00   0.66636276   0.02608202
5313.00   0.65787148   0.02596136
5314.00   0.65015703   0.02583064
5315.00   0.65592015   0.02582372
5316.00   0.65541333   0.02582661
5317.00   0.65473914   0.02580023
5318.00   0.67920971   0.02607037
5319.00   0.66735458   0.02592602
5320.00   0.64131850   0.02563758
5321.00   0.66558725   0.02581760
5322.00   0.66434562   0.02573127
5323.00   0.65837669   0.02559674
5324.00   0.64523190   0.02547991
5325.00   0.63551128   0.02532236
5326.00   0.65028107   0.02539262
5327.00   0.65148801   0.02535065
5328.00   0.63986468   0.02526974
5329.00   0.64509112   0.02541677
5330.00   0.65350264   0.02555093
5331.00   0.66117960   0.02567772
5332.00   0.66123044   0.02569460
5333.00   0.65329170   0.02564473
5334.00   0.67329395   0.02590671
5335.00   0.64854759   0.02576614
5336.00   0.66066533   0.02582292
5337.00   0.66456157   0.02585530
5338.00   0.62445760   0.02551186
5339.00   0.62640476   0.02554108
5340.00   0.66169965   0.02586816
5341.00   0.67304999   0.02596375
5342.00   0.66549098   0.02593509
5343.00   0.65526515   0.02587777
5344.00   0.64870143   0.02577100
5345.00   0.63583201   0.02565078
5346.00   0.62815255   0.02564276
5347.00   0.63370419   0.02573580
5348.00   0.64101607   0.02585461
5349.00   0.65811044   0.02605036
5350.00   0.67058623   0.02612870
5351.00   0.64445454   0.02587708
5352.00   0.62665641   0.02578491
5353.00   0.65263224   0.02611070
5354.00   0.63728088   0.02598259
5355.00   0.65330803   0.02613892
5356.00   0.65412140   0.02622955
5357.00   0.65565586   0.02621197
5358.00   0.64717287   0.02606043
5359.00   0.63169426   0.02589236
5360.00   0.65070760   0.02601384
5361.00   0.67193580   0.02613056
5362.00   0.67808223   0.02610373
5363.00   0.65176755   0.02577874
5364.00   0.60808080   0.02531518
5365.00   0.63836062   0.02556897
5366.00   0.66068542   0.02578698
5367.00   0.64967585   0.02555252
5368.00   0.63295001   0.02529661
5369.00   0.64000547   0.02536967
5370.00   0.61884570   0.02522630
5371.00   0.61607790   0.02525887
5372.00   0.63651657   0.02557300
5373.00   0.64758718   0.02579340
5374.00   0.65047348   0.02590233
5375.00   0.64271879   0.02592639
5376.00   0.63023412   0.02586605
5377.00   0.62544221   0.02583752
5378.00   0.63506216   0.02590563
5379.00   0.65907192   0.02619494
5380.00   0.62753326   0.02593766
5381.00   0.61594218   0.02576052
5382.00   0.62015277   0.02576059
5383.00   0.62080371   0.02578897
5384.00   0.63371336   0.02597211
5385.00   0.64455229   0.02614534
5386.00   0.63843036   0.02613442
5387.00   0.63560277   0.02612227
5388.00   0.64832032   0.02624127
5389.00   0.64452916   0.02621052
5390.00   0.62124842   0.02603928
5391.00   0.63437039   0.02624734
5392.00   0.66360730   0.02656921
5393.00   0.66332859   0.02656617
5394.00   0.65482873   0.02644907
5395.00   0.62940687   0.02620772
5396.00   0.61735070   0.02612563
5397.00   0.63194191   0.02638034
5398.00   0.64298916   0.02667285
5399.00   0.64421856   0.02679444
5400.00   0.64030653   0.02684905
5401.00   0.62982106   0.02682266
5402.00   0.62944722   0.02677199
5403.00   0.64916617   0.02694505
5404.00   0.64455312   0.02703700
5405.00   0.64017475   0.02715752
5406.00   0.65069151   0.02733822
5407.00   0.64474881   0.02730002
5408.00   0.64088672   0.02733502
5409.00   0.59504038   0.02703479
5410.00   0.62489873   0.02750212
5411.00   0.65985453   0.02796653
5412.00   0.64017206   0.02792530
5413.00   0.65442461   0.02821263
5414.00   0.66068268   0.02842386
5415.00   0.64686286   0.02837963
5416.00   0.64067668   0.02842089
5417.00   0.64736384   0.02859559
5418.00   0.62309074   0.02839462
5419.00   0.61023253   0.02827360
5420.00   0.64620250   0.02867359
5421.00   0.64702129   0.02874769
5422.00   0.62607723   0.02857022
5423.00   0.63628191   0.02871767
5424.00   0.63349801   0.02870292
5425.00   0.64100510   0.02867530
5426.00   0.61002624   0.02837026
5427.00   0.60012871   0.02832290
5428.00   0.61534077   0.02855516
5429.00   0.62243259   0.02866951
5430.00   0.61756986   0.02858874
5431.00   0.60004979   0.02842335
5432.00   0.59621924   0.02846066
5433.00   0.60925001   0.02864957
5434.00   0.60069096   0.02858506
5435.00   0.58581871   0.02851624
5436.00   0.59974170   0.02880996
5437.00   0.59653133   0.02886057
5438.00   0.60374314   0.02904419
5439.00   0.62641627   0.02944310
5440.00   0.61665714   0.02948466
5441.00   0.61969346   0.02962694
5442.00   0.64118195   0.02988442
5443.00   0.61371934   0.02961789
5444.00   0.60478330   0.02957007
5445.00   0.62104648   0.02976100
5446.00   0.61631727   0.02976841
5447.00   0.61946470   0.02995610
5448.00   0.62776911   0.03019863
5449.00   0.61056882   0.03009625
5450.00   0.60497212   0.03006509
5451.00   0.62929678   0.03034154
5452.00   0.63682759   0.03045959
5453.00   0.62694269   0.03040401
5454.00   0.60972875   0.03031244
5455.00   0.61215514   0.03067851
5456.00   0.60610151   0.03172032
5457.00   0.56785756   0.03274526
5458.00   0.60196328   0.03431492
5459.00   0.61525398   0.03537692
5460.00   0.60262662   0.03562032
5461.00   0.59686601   0.03524101
5462.00   0.59948039   0.03457550
5463.00   0.60277212   0.03402504
5464.00   0.60934800   0.03367275
5465.00   0.60418862   0.03316960
5466.00   0.58344638   0.03256836
5467.00   0.63173658   0.03282189
5468.00   0.64130187   0.03260358
5469.00   0.61407208   0.03194443
5470.00   0.59037507   0.03142406
5471.00   0.60743093   0.03145277
5472.00   0.59926873   0.03131751
5473.00   0.60087430   0.03112441
5474.00   0.61362791   0.03124300
5475.00   0.60611916   0.03118044
5476.00   0.59449869   0.03099689
5477.00   0.59865403   0.03102023
5478.00   0.61433691   0.03122831
5479.00   0.61306936   0.03138009
5480.00   0.59992832   0.03135977
5481.00   0.62123626   0.03176147
5482.00   0.61227804   0.03185435
5483.00   0.60209441   0.03177252
5484.00   0.58633161   0.03154601
5485.00   0.58048522   0.03145732
5486.00   0.59341049   0.03171508
5487.00   0.59801954   0.03180793
5488.00   0.58729923   0.03158001
5489.00   0.55878288   0.03121510
5490.00   0.56150216   0.03132405
5491.00   0.58267927   0.03165209
5492.00   0.58359200   0.03169203
5493.00   0.57599336   0.03162978
5494.00   0.60645092   0.03197489
5495.00   0.64020741   0.03234420
5496.00   0.60604298   0.03201712
5497.00   0.58044362   0.03179706
5498.00   0.58711350   0.03197414
5499.00   0.60769188   0.03215079
5500.00   0.62275290   0.03223061
5501.00   0.58568209   0.03200356
5502.00   0.59872377   0.03218181
5503.00   0.62796772   0.03242490
5504.00   0.63074028   0.03246994
5505.00   0.61372387   0.03237009
5506.00   0.59318429   0.03212680
5507.00   0.59774446   0.03202800
5508.00   0.61316621   0.03218858
5509.00   0.62693655   0.03250369
5510.00   0.62388903   0.03258294
5511.00   0.57495612   0.03209731
5512.00   0.63128746   0.02319044
5513.00   0.60042930   0.02329263
5514.00   0.58142334   0.02336400
5515.00   0.58441669   0.02306710
5516.00   0.61539018   0.02302230
5517.00   0.58469307   0.02241922
5518.00   0.60848844   0.02234391
5519.00   0.62737453   0.02249195
5520.00   0.61475825   0.02240965
5521.00   0.57503039   0.02219982
5522.00   0.58952844   0.02199671
5523.00   0.61331826   0.02293426
5524.00   0.62033790   0.02301413
5525.00   0.59769356   0.02101829
5526.00   0.59172565   0.02087807
5527.00   0.55574179   0.02059970
5528.00   0.61625946   0.02077914
5529.00   0.58285761   0.02035698
5530.00   0.56431097   0.02047552
5531.00   0.58249068   0.02025360
5532.00   0.54159832   0.02027613
5533.00   0.55993903   0.02029758
5534.00   0.59658456   0.01993900
5535.00   0.60451281   0.01982290
5536.00   0.55649984   0.01924100
5537.00   0.51898384   0.01888632
5538.00   0.56143725   0.01934451
5539.00   0.57497740   0.01977808
5540.00   0.60034627   0.01945480
5541.00   0.60965860   0.01930723
5542.00   0.57870543   0.01896305
5543.00   0.59937435   0.01901105
5544.00   0.59736961   0.01930106
5545.00   0.59492999   0.01886316
5546.00   0.55818450   0.01836476
5547.00   0.56417316   0.01847927
5548.00   0.58741057   0.01876331
5549.00   0.57652795   0.01823732
5550.00   0.55737293   0.01813223
5551.00   0.56317419   0.01806181
5552.00   0.59170115   0.01814882
5553.00   0.59888268   0.01836123
5554.00   0.57543629   0.01797870
5555.00   0.59457970   0.01774076
5556.00   0.60495842   0.01770499
5557.00   0.57208407   0.01746544
5558.00   0.57753575   0.01752703
5559.00   0.60036588   0.01750554
5560.00   0.56440645   0.01720571
5561.00   0.54595602   0.01710945
5562.00   0.53763634   0.01713499
5563.00   0.55048752   0.01805346
5564.00   0.58368856   0.01762922
5565.00   0.56860077   0.01737248
5566.00   0.56413382   0.01762608
5567.00   0.56256241   0.01682407
5568.00   0.54418790   0.01655189
5569.00   0.51685131   0.01634456
5570.00   0.53862643   0.01658656
5571.00   0.51893938   0.01677735
5572.00   0.53945661   0.01744371
5573.00   0.56886208   0.01831052
5574.00   0.54461902   0.01911604
5575.00   0.55705237   0.02067704
5576.00   0.55191958   0.02299103
5577.00   0.52453864   0.02540409
5578.00   0.53985131   0.02597072
5579.00   0.52761799   0.02408075
5580.00   0.55055058   0.02076398
5581.00   0.56003511   0.01716392
5582.00   0.52809453   0.01567033
5583.00   0.53861773   0.01558400
5584.00   0.57306647   0.01573993
5585.00   0.57307816   0.01570384
5586.00   0.55101025   0.01554292
5587.00   0.55453217   0.01569697
5588.00   0.55892962   0.01567424
5589.00   0.51845479   0.01511522
5590.00   0.56495214   0.01557678
5591.00   0.56918550   0.01590350
5592.00   0.53118110   0.01521363
5593.00   0.55998039   0.01571912
5594.00   0.56433654   0.01634768
5595.00   0.54264975   0.01521463
5596.00   0.54297805   0.01541180
5597.00   0.55567420   0.01516711
5598.00   0.54834855   0.01507390
5599.00   0.54763842   0.01489372
5600.00   0.54422510   0.01525297
5601.00   0.52056897   0.01582759
5602.00   0.53812909   0.01515503
5603.00   0.55638486   0.01482709
5604.00   0.55496633   0.01522296
5605.00   0.55937588   0.01538667
5606.00   0.53436112   0.01486009
5607.00   0.52568948   0.01478826
5608.00   0.49489725   0.01451418
5609.00   0.51211923   0.01453973
5610.00   0.55438280   0.01479270
5611.00   0.58057016   0.01494028
5612.00   0.54271424   0.01461578
5613.00   0.55669427   0.01451306
5614.00   0.53943884   0.01512737
5615.00   0.52585095   0.01629549
5616.00   0.57236546   0.01545971
5617.00   0.53772581   0.01429759
5618.00   0.55337977   0.01468218
5619.00   0.55695033   0.01537644
5620.00   0.55233598   0.01532177
5621.00   0.57502168   0.01475652
5622.00   0.56786835   0.01459774
5623.00   0.59260929   0.01477922
5624.00   0.59435266   0.01516502
5625.00   0.54189789   0.01522080
5626.00   0.53481102   0.01445991
5627.00   0.52137172   0.01414252
5628.00   0.53885102   0.01409025
5629.00   0.53197509   0.01433605
5630.00   0.53452301   0.01586120
5631.00   0.53046179   0.01480218
5632.00   0.48418620   0.01555715
5633.00   0.56576884   0.01414314
5634.00   0.52258885   0.01385954
5635.00   0.50234240   0.01402150
5636.00   0.51898754   0.01392553
5637.00   0.53404361   0.01388106
5638.00   0.55871952   0.01469189
5639.00   0.56190574   0.01440694
5640.00   0.57463300   0.01491640
5641.00   0.53716946   0.01382096
5642.00   0.51827425   0.01352578
5643.00   0.55217600   0.01369791
5644.00   0.51926726   0.01356823
5645.00   0.50841165   0.01355424
5646.00   0.53317004   0.01363488
5647.00   0.53852296   0.01389711
5648.00   0.54048955   0.01457260
5649.00   0.53393960   0.01392743
5650.00   0.54797661   0.01338624
5651.00   0.55026710   0.01361921
5652.00   0.52568269   0.01365338
5653.00   0.54676545   0.01359025
5654.00   0.54938036   0.01350659
5655.00   0.51873535   0.01320270
5656.00   0.51855236   0.01341738
5657.00   0.52713609   0.01331250
5658.00   0.53094614   0.01321687
5659.00   0.49996263   0.01318076
5660.00   0.51424241   0.01309380
5661.00   0.54324555   0.01312909
5662.00   0.52651405   0.01367065
5663.00   0.52699834   0.01395766
5664.00   0.51870704   0.01323137
5665.00   0.48560292   0.01289296
5666.00   0.52734017   0.01317517
5667.00   0.51793236   0.01315986
5668.00   0.49981833   0.01348179
5669.00   0.53580987   0.01343754
5670.00   0.53326368   0.01343999
5671.00   0.52145839   0.01382356
5672.00   0.52742481   0.01391844
5673.00   0.51996410   0.01378975
5674.00   0.54173052   0.01370772
5675.00   0.54063433   0.01331532
5676.00   0.51328504   0.01344524
5677.00   0.53566015   0.01326248
5678.00   0.56522405   0.01420336
5679.00   0.52048111   0.01328954
5680.00   0.51799011   0.01329894
5681.00   0.58964050   0.01420725
5682.00   0.54054284   0.01387459
5683.00   0.53870201   0.01399835
5684.00   0.53063589   0.01409250
5685.00   0.49985227   0.01405259
5686.00   0.51946831   0.01468027
5687.00   0.51659727   0.01448448
5688.00   0.51021129   0.01436687
5689.00   0.52821112   0.01443179
5690.00   0.50185806   0.01407638
5691.00   0.53038561   0.01392085
5692.00   0.51772690   0.01420350
5693.00   0.52247763   0.01443825
5694.00   0.51959825   0.01301754
5695.00   0.52162242   0.01278578
5696.00   0.52769667   0.01269114
5697.00   0.52503526   0.01259192
5698.00   0.53313208   0.01261455
5699.00   0.51878166   0.01249319
5700.00   0.50350106   0.01243809
5701.00   0.51110476   0.01239656
5702.00   0.51495814   0.01237698
5703.00   0.52875853   0.01246011
5704.00   0.53168505   0.01203968
5705.00   0.50372005   0.01181874
5706.00   0.49761999   0.01172059
5707.00   0.49825627   0.01171503
5708.00   0.50220191   0.01173118
5709.00   0.50138116   0.01180371
5710.00   0.51800156   0.01213012
5711.00   0.54148376   0.01203940
5712.00   0.52365017   0.01179346
5713.00   0.50786167   0.01234244
5714.00   0.50342882   0.01254327
5715.00   0.52027893   0.01173637
5716.00   0.52977806   0.01197053
5717.00   0.52166820   0.01174751
5718.00   0.49084789   0.01151793
5719.00   0.51311815   0.01147863
5720.00   0.52305365   0.01195401
5721.00   0.51936978   0.01263144
5722.00   0.54742217   0.01201897
5723.00   0.55635393   0.01215522
5724.00   0.53408647   0.01225607
5725.00   0.50446182   0.01132893
5726.00   0.49691203   0.01126990
5727.00   0.49023116   0.01196453
5728.00   0.51233321   0.01179275
5729.00   0.48592091   0.01182262
5730.00   0.46808812   0.01210744
5731.00   0.49349982   0.01132181
5732.00   0.50000733   0.01134659
5733.00   0.50870150   0.01166245
5734.00   0.51456964   0.01113713
5735.00   0.52185667   0.01131608
5736.00   0.53436196   0.01161698
5737.00   0.50835359   0.01124099
5738.00   0.50691521   0.01104689
5739.00   0.49724388   0.01175794
5740.00   0.50208187   0.01140739
5741.00   0.50879073   0.01117971
5742.00   0.49341536   0.01117453
5743.00   0.51048136   0.01122832
5744.00   0.49105442   0.01109765
5745.00   0.48358068   0.01102214
5746.00   0.51161373   0.01164749
5747.00   0.50248539   0.01152382
5748.00   0.49869388   0.01091604
5749.00   0.50257343   0.01089488
5750.00   0.51226151   0.01151331
5751.00   0.49237120   0.01315883
5752.00   0.46039099   0.01189660
5753.00   0.46559158   0.01218645
5754.00   0.50276589   0.01154795
5755.00   0.53919089   0.01135797
5756.00   0.52535152   0.01116333
5757.00   0.50865203   0.01110107
5758.00   0.52953649   0.01110437
5759.00   0.51016033   0.01073628
5760.00   0.44803113   0.01273213
5761.00   0.49873748   0.01178983
5762.00   0.48951712   0.01071776
5763.00   0.52752268   0.01138525
5764.00   0.51383018   0.01166708
5765.00   0.48288977   0.01089748
5766.00   0.52457488   0.01148918
5767.00   0.51827204   0.01177961
5768.00   0.50719798   0.01168157
5769.00   0.47996718   0.01173327
5770.00   0.45806491   0.01233124
5771.00   0.50981677   0.01273111
5772.00   0.48121059   0.01247254
5773.00   0.47619158   0.01213597
5774.00   0.47330615   0.01094631
5775.00   0.47013360   0.01055680
5776.00   0.49259740   0.01063153
5777.00   0.48290226   0.01056880
5778.00   0.48351115   0.01123385
5779.00   0.48335579   0.01125984
5780.00   0.50115687   0.01064102
5781.00   0.50748932   0.01085538
5782.00   0.47765082   0.01049020
5783.00   0.49622762   0.01048667
5784.00   0.47032291   0.01033528
5785.00   0.46992648   0.01038687
5786.00   0.47539461   0.01048223
5787.00   0.46228427   0.01056719
5788.00   0.46581957   0.01142231
5789.00   0.50177985   0.01229438
5790.00   0.50836825   0.01179717
5791.00   0.49052656   0.01187982
5792.00   0.49178672   0.01161072
5793.00   0.49717087   0.01105839
5794.00   0.50144076   0.01082739
5795.00   0.48486584   0.01061994
5796.00   0.48898971   0.01053870
5797.00   0.47758672   0.01044939
5798.00   0.48679316   0.01044556
5799.00   0.47190458   0.01036617
5800.00   0.46911627   0.01041395
5801.00   0.48514006   0.01066402
5802.00   0.48914289   0.01063786
5803.00   0.48081180   0.01045503
5804.00   0.47229272   0.01041497
5805.00   0.45833573   0.01034620
5806.00   0.46544927   0.01032933
5807.00   0.48601022   0.01033522
5808.00   0.49088907   0.01070619
5809.00   0.46137726   0.01154737
5810.00   0.50611305   0.01102169
5811.00   0.48815474   0.01046909
5812.00   0.47054741   0.01117610
5813.00   0.46666232   0.01109580
5814.00   0.48374012   0.01027341
5815.00   0.48165262   0.01059266
5816.00   0.47892207   0.01140241
5817.00   0.46570200   0.01062025
5818.00   0.49617547   0.01038630
5819.00   0.48713353   0.01042405
5820.00   0.46989346   0.01034604
5821.00   0.46902665   0.01037876
5822.00   0.45561737   0.01037005
5823.00   0.47311571   0.01042720
5824.00   0.49102491   0.01049084
5825.00   0.48188531   0.01040371
5826.00   0.48476481   0.01041977
5827.00   0.48842138   0.01050225
5828.00   0.49425459   0.01071018
5829.00   0.47470918   0.01044453
5830.00   0.47611839   0.01039772
5831.00   0.48155001   0.01045235
5832.00   0.46986753   0.01038310
5833.00   0.47924209   0.01044755
5834.00   0.47035381   0.01038078
5835.00   0.47577256   0.01043208
5836.00   0.50121492   0.01051477
5837.00   0.49825153   0.01053932
5838.00   0.49658334   0.01065418
5839.00   0.48574603   0.01056404
5840.00   0.46643162   0.01048242
5841.00   0.48497236   0.01053274
5842.00   0.48096657   0.01045900
5843.00   0.48401552   0.01048113
5844.00   0.49329817   0.01055525
5845.00   0.49470654   0.01051055
5846.00   0.48944753   0.01051463
5847.00   0.47139305   0.01043014
5848.00   0.48955309   0.01048349
5849.00   0.49863753   0.01053597
5850.00   0.49020189   0.01050184
5851.00   0.48733887   0.01053058
5852.00   0.48675901   0.01052363
5853.00   0.48679894   0.01075450
5854.00   0.48975992   0.01096920
5855.00   0.48940778   0.01057768
5856.00   0.50881529   0.01058209
5857.00   0.49973190   0.01051517
5858.00   0.49849248   0.01049508
5859.00   0.49236423   0.01055724
5860.00   0.47944385   0.01125658
5861.00   0.49860692   0.01114755
5862.00   0.48574695   0.01045060
5863.00   0.48911288   0.01058729
5864.00   0.48996365   0.01061938
5865.00   0.47510654   0.01065749
5866.00   0.49400890   0.01087087
5867.00   0.48601127   0.01078292
5868.00   0.47985256   0.01077207
5869.00   0.48560697   0.01078913
5870.00   0.51440352   0.01087874
5871.00   0.49997568   0.01076354
5872.00   0.49258724   0.01072872
5873.00   0.50371784   0.01079396
5874.00   0.48935199   0.01078187
5875.00   0.47875488   0.01064184
5876.00   0.47887069   0.01055953
5877.00   0.49526879   0.01062891
5878.00   0.49490562   0.01056270
5879.00   0.49943459   0.01055170
5880.00   0.49417001   0.01045428
5881.00   0.50008225   0.01042860
5882.00   0.47650966   0.01070907
5883.00   0.47419786   0.01066483
5884.00   0.50453246   0.01044053
5885.00   0.49447420   0.01052423
5886.00   0.46572426   0.01065084
5887.00   0.45826966   0.01153103
5888.00   0.47914115   0.01396658
5889.00   0.45915034   0.01737844
5890.00   0.42660367   0.01925477
5891.00   0.44750890   0.01876891
5892.00   0.45050931   0.01643186
5893.00   0.45320946   0.01343508
5894.00   0.47059202   0.01381303
5895.00   0.47858173   0.01713123
5896.00   0.45174724   0.01899942
5897.00   0.46297383   0.01859180
5898.00   0.48650202   0.01609051
5899.00   0.48396009   0.01230173
5900.00   0.48387599   0.01040381
5901.00   0.45960569   0.01019276
5902.00   0.46814004   0.01024971
5903.00   0.48763660   0.01036170
5904.00   0.47421962   0.01035318
5905.00   0.48590714   0.01045511
5906.00   0.49515653   0.01057230
5907.00   0.50250244   0.01051071
5908.00   0.50044483   0.01057395
5909.00   0.49730486   0.01101328
5910.00   0.50996423   0.01076311
5911.00   0.49315768   0.01045371
5912.00   0.46949446   0.01036559
5913.00   0.47944444   0.01039068
5914.00   0.48056650   0.01051433
5915.00   0.50105530   0.01074165
5916.00   0.51322389   0.01083501
5917.00   0.50526118   0.01083820
5918.00   0.48653609   0.01052090
5919.00   0.47249287   0.01029141
5920.00   0.48866421   0.01038630
5921.00   0.49220809   0.01044649
5922.00   0.48320642   0.01041632
5923.00   0.47113186   0.01027649
5924.00   0.45609137   0.01062467
5925.00   0.47038138   0.01121336
5926.00   0.48448724   0.01051928
5927.00   0.49397326   0.01055807
5928.00   0.49461275   0.01059987
5929.00   0.48806965   0.01055964
5930.00   0.49124789   0.01050255
5931.00   0.50626022   0.01056909
5932.00   0.50666308   0.01073324
5933.00   0.51109660   0.01114017
5934.00   0.51036793   0.01101853
5935.00   0.50371218   0.01074684
5936.00   0.49328786   0.01051223
5937.00   0.49918044   0.01047148
5938.00   0.49427885   0.01045831
5939.00   0.49869859   0.01044411
5940.00   0.49385476   0.01033655
5941.00   0.46960500   0.01021379
5942.00   0.46422470   0.01018218
5943.00   0.47130403   0.01008479
5944.00   0.49268192   0.01020130
5945.00   0.51410025   0.01036098
5946.00   0.48813140   0.01023265
5947.00   0.46044290   0.01004757
5948.00   0.46420690   0.01003967
5949.00   0.49804443   0.01015036
5950.00   0.49915308   0.01017312
5951.00   0.48726881   0.01015538
5952.00   0.49143988   0.01036712
5953.00   0.48898199   0.01054967
5954.00   0.49733347   0.01053265
5955.00   0.50315666   0.01040432
5956.00   0.48240542   0.01016799
5957.00   0.49223533   0.01008654
5958.00   0.49156258   0.01005102
5959.00   0.48504344   0.00993206
5960.00   0.48789865   0.01045473
5961.00   0.45862213   0.01144378
5962.00   0.50807154   0.01031995
5963.00   0.49911547   0.01014914
5964.00   0.47331041   0.01011694
5965.00   0.48973191   0.01024678
5966.00   0.52348781   0.01059579
5967.00   0.50723219   0.01064481
5968.00   0.47847250   0.00994941
5969.00   0.48463154   0.00994319
5970.00   0.48944426   0.01001427
5971.00   0.49353093   0.01005763
5972.00   0.50350857   0.01012776
5973.00   0.49080241   0.01001070
5974.00   0.48356670   0.01026715
5975.00   0.47899053   0.01104036
5976.00   0.48602796   0.00992586
5977.00   0.48334455   0.00994375
5978.00   0.50453091   0.01007811
5979.00   0.51398289   0.01002393
5980.00   0.47924036   0.00983415
5981.00   0.47195619   0.00989160
5982.00   0.50363952   0.00998899
5983.00   0.50276995   0.00989112
5984.00   0.48365760   0.00976636
5985.00   0.46870872   0.00981206
5986.00   0.46342275   0.01002929
5987.00   0.49303663   0.00990286
5988.00   0.48746085   0.01017015
5989.00   0.49816868   0.00987381
5990.00   0.50549734   0.00987420
5991.00   0.49016008   0.00978323
5992.00   0.47894406   0.00970055
5993.00   0.46559584   0.00974983
5994.00   0.46971101   0.00983679
5995.00   0.46821830   0.01003711
5996.00   0.46106774   0.00971327
5997.00   0.48642340   0.00969582
5998.00   0.50536788   0.00978847
5999.00   0.47870073   0.00961903
6000.00   0.47145259   0.00972678
6001.00   0.49445945   0.01042861
6002.00   0.47672403   0.01033161
6003.00   0.50111645   0.00969042
6004.00   0.51627386   0.00976538
6005.00   0.49646795   0.00972241
6006.00   0.47392750   0.00972005
6007.00   0.48985648   0.00965840
6008.00   0.48722777   0.00954915
6009.00   0.47843304   0.00988015
6010.00   0.47962552   0.00978386
6011.00   0.47979581   0.00991134
6012.00   0.45411611   0.00956688
6013.00   0.45628330   0.00976138
6014.00   0.49147856   0.00956024
6015.00   0.48324355   0.00943895
6016.00   0.48391801   0.00944450
6017.00   0.49742988   0.00952202
6018.00   0.50714600   0.00959320
6019.00   0.48124370   0.00943667
6020.00   0.47712052   0.00942674
6021.00   0.48206103   0.00957806
6022.00   0.48068964   0.00944760
6023.00   0.48764455   0.00940253
6024.00   0.47581106   0.00938435
6025.00   0.46674249   0.00932069
6026.00   0.49048916   0.00944703
6027.00   0.48750973   0.00946187
6028.00   0.48171800   0.00943685
6029.00   0.47710606   0.00941529
6030.00   0.48285568   0.00943844
6031.00   0.47671402   0.00940721
6032.00   0.47488099   0.00968539
6033.00   0.47627825   0.00954083
6034.00   0.50581867   0.00988049
6035.00   0.50940168   0.00991858
6036.00   0.49624100   0.00957830
6037.00   0.45741925   0.00946616
6038.00   0.48571008   0.00953970
6039.00   0.50467688   0.00967613
6040.00   0.49113238   0.00947872
6041.00   0.48871261   0.00940604
6042.00   0.48396236   0.00936235
6043.00   0.48644024   0.00940704
6044.00   0.48857716   0.00942759
6045.00   0.47787991   0.00935136
6046.00   0.50279248   0.00967330
6047.00   0.46238351   0.01023045
6048.00   0.45560682   0.00961198
6049.00   0.47159043   0.00919376
6050.00   0.46071821   0.00920216
6051.00   0.45519638   0.00915287
6052.00   0.45630401   0.00927023
6053.00   0.47979665   0.00945379
6054.00   0.48760062   0.00931795
6055.00   0.46617809   0.00910026
6056.00   0.47259295   0.00936035
6057.00   0.49058142   0.00948201
6058.00   0.48019582   0.00921322
6059.00   0.47743058   0.00920941
6060.00   0.50036979   0.00932663
6061.00   0.48007429   0.00924680
6062.00   0.46526426   0.00917508
6063.00   0.46418214   0.00912063
6064.00   0.46584702   0.00909740
6065.00   0.47908133   0.00916623
6066.00   0.50054467   0.00926190
6067.00   0.48992205   0.00921968
6068.00   0.46663049   0.00913371
6069.00   0.47334713   0.00916652
6070.00   0.47035438   0.00916513
6071.00   0.48722622   0.00922704
6072.00   0.48761421   0.00922723
6073.00   0.47017372   0.00937085
6074.00   0.47617322   0.00931617
6075.00   0.47557226   0.00912500
6076.00   0.48035771   0.00915731
6077.00   0.48759854   0.00915003
6078.00   0.47753096   0.00909842
6079.00   0.48416173   0.00908316
6080.00   0.48767853   0.00919546
6081.00   0.46847874   0.00921189
6082.00   0.45635292   0.00912846
6083.00   0.47019184   0.00926203
6084.00   0.45790291   0.00907800
6085.00   0.45524651   0.00918755
6086.00   0.45792577   0.00994791
6087.00   0.45436156   0.00972321
6088.00   0.46622932   0.00885701
6089.00   0.46328217   0.00898091
6090.00   0.45749459   0.00893629
6091.00   0.46552306   0.00900580
6092.00   0.46809775   0.00895548
6093.00   0.47867638   0.00911966
6094.00   0.47932518   0.00934174
6095.00   0.46294931   0.00908041
6096.00   0.47745547   0.00929090
6097.00   0.46931767   0.00917636
6098.00   0.46024913   0.00915062
6099.00   0.46673501   0.00899959
6100.00   0.46590611   0.00900898
6101.00   0.46371901   0.00896266
6102.00   0.46115917   0.00902474
6103.00   0.44134116   0.00957988
6104.00   0.45098704   0.00911126
6105.00   0.48434204   0.00913139
6106.00   0.46695900   0.00908775
6107.00   0.43887383   0.00929820
6108.00   0.44596800   0.00978995
6109.00   0.46862426   0.00926746
6110.00   0.46353149   0.00929702
6111.00   0.45346761   0.00934091
6112.00   0.44187748   0.00980093
6113.00   0.44659609   0.01008093
6114.00   0.46087226   0.00972153
6115.00   0.44990623   0.00944353
6116.00   0.45155650   0.00939152
6117.00   0.46731955   0.00931766
6118.00   0.46694875   0.00946385
6119.00   0.43345270   0.01009657
6120.00   0.45442900   0.00918023
6121.00   0.44957817   0.00893118
6122.00   0.46605396   0.00904456
6123.00   0.45695418   0.00891225
6124.00   0.45822763   0.00892076
6125.00   0.47092050   0.00900082
6126.00   0.47287053   0.00896532
6127.00   0.45384997   0.00887650
6128.00   0.45696184   0.00888134
6129.00   0.46878240   0.00889099
6130.00   0.45140427   0.00881622
6131.00   0.45165163   0.00882420
6132.00   0.46649456   0.00891311
6133.00   0.47990406   0.00893430
6134.00   0.45960426   0.00882251
6135.00   0.45795822   0.00882078
6136.00   0.46648920   0.00878616
6137.00   0.47847188   0.00890174
6138.00   0.48674220   0.00894873
6139.00   0.47174758   0.00887968
6140.00   0.44851446   0.00878173
6141.00   0.43769699   0.00869056
6142.00   0.45309320   0.00876870
6143.00   0.47366539   0.00888473
6144.00   0.46342826   0.00892509
6145.00   0.44214556   0.00893306
6146.00   0.44193214   0.00878031
6147.00   0.45312566   0.00891301
6148.00   0.45332187   0.00903644
6149.00   0.44940466   0.00871544
6150.00   0.45959842   0.00879559
6151.00   0.46686858   0.00890206
6152.00   0.45261717   0.00869678
6153.00   0.47150943   0.00931272
6154.00   0.46631300   0.00935253
6155.00   0.44524741   0.00888897
6156.00   0.44494826   0.00892352
6157.00   0.45747399   0.00894370
6158.00   0.45548478   0.00876013
6159.00   0.45103830   0.00866928
6160.00   0.46194488   0.00889683
6161.00   0.46753165   0.00902743
6162.00   0.47015131   0.00900849
6163.00   0.45953223   0.00882464
6164.00   0.46222806   0.00867940
6165.00   0.46006060   0.00863051
6166.00   0.43902186   0.00854318
6167.00   0.46763563   0.00858155
6168.00   0.47336096   0.00859352
6169.00   0.44922239   0.00845283
6170.00   0.45595503   0.00853338
6171.00   0.45312679   0.00864433
6172.00   0.45941079   0.00860993
6173.00   0.44254661   0.00838944
6174.00   0.43419850   0.00842620
6175.00   0.45867136   0.00876861
6176.00   0.42793006   0.00860922
6177.00   0.42619985   0.00931730
6178.00   0.45186716   0.00849214
6179.00   0.43358457   0.00829636
6180.00   0.44296026   0.00838100
6181.00   0.44856638   0.00842235
6182.00   0.44847128   0.00838230
6183.00   0.43872562   0.00832740
6184.00   0.44948474   0.00837845
6185.00   0.46879244   0.00851106
6186.00   0.46680212   0.00893266
6187.00   0.46089673   0.00859789
6188.00   0.43503600   0.00881532
6189.00   0.44828105   0.00848992
6190.00   0.45703009   0.00835947
6191.00   0.44957098   0.00829135
6192.00   0.43078887   0.00820933
6193.00   0.43086070   0.00826116
6194.00   0.45243591   0.00838096
6195.00   0.46314180   0.00840013
6196.00   0.45634347   0.00841928
6197.00   0.44781679   0.00835236
6198.00   0.45842099   0.00840038
6199.00   0.47572258   0.00845553
6200.00   0.44931740   0.00840495
6201.00   0.44001228   0.00831288
6202.00   0.43944377   0.00831551
6203.00   0.44873083   0.00837646
6204.00   0.45346832   0.00841366
6205.00   0.43696681   0.00829088
6206.00   0.43744826   0.00822529
6207.00   0.45133954   0.00829893
6208.00   0.44463497   0.00827852
6209.00   0.45500088   0.00836630
6210.00   0.45719761   0.00841662
6211.00   0.44488645   0.00833901
6212.00   0.42678773   0.00874756
6213.00   0.46332949   0.00927574
6214.00   0.46899727   0.01006607
6215.00   0.46033698   0.01009261
#6216.00   0.51100934   0.01072642
6217.00   0.48009926   0.00994729
6218.00   0.43723387   0.00834004
6219.00   0.43771997   0.00810186
6220.00   0.45393297   0.00823182
6221.00   0.45550764   0.00828915
6222.00   0.43165022   0.00826865
6223.00   0.44210508   0.00833141
6224.00   0.45514607   0.00830409
6225.00   0.44383389   0.00818508
6226.00   0.43664008   0.00810891
6227.00   0.43853778   0.00815098
6228.00   0.44633925   0.00817842
6229.00   0.43930337   0.00810384
6230.00   0.44537371   0.00809024
6231.00   0.44055945   0.00800309
6232.00   0.43251902   0.00803855
6233.00   0.43719232   0.00836396
6234.00   0.44752240   0.00847362
6235.00   0.46896750   0.00858805
6236.00   0.45453352   0.00859476
6237.00   0.43546948   0.00849457
6238.00   0.44145280   0.00839798
6239.00   0.44760007   0.00834593
6240.00   0.43314224   0.00827423
6241.00   0.41732123   0.00822991
6242.00   0.43492901   0.00823229
6243.00   0.43709600   0.00825496
6244.00   0.42866912   0.00849570
6245.00   0.42275351   0.00849783
6246.00   0.43051502   0.00806106
6247.00   0.42898762   0.00790398
6248.00   0.42834783   0.00805838
6249.00   0.43949407   0.00841554
6250.00   0.46976000   0.00823723
6251.00   0.46561480   0.00825110
6252.00   0.44609582   0.00811186
6253.00   0.44883162   0.00807157
6254.00   0.45165658   0.00807187
6255.00   0.43864396   0.00798648
6256.00   0.44417456   0.00811989
6257.00   0.44224566   0.00835117
6258.00   0.44635046   0.00854135
6259.00   0.41550696   0.00967550
6260.00   0.41727889   0.00858774
6261.00   0.43384469   0.00803764
6262.00   0.44309616   0.00809181
6263.00   0.44326097   0.00805172
6264.00   0.45515040   0.00816152
6265.00   0.44282472   0.00817653
6266.00   0.42541003   0.00808763
6267.00   0.43483287   0.00820293
6268.00   0.43595153   0.00818395
6269.00   0.42613453   0.00798476
6270.00   0.42050284   0.00790412
6271.00   0.42597246   0.00792633
6272.00   0.43683505   0.00802157
6273.00   0.41235834   0.00814843
6274.00   0.42741743   0.00809595
6275.00   0.44012642   0.00800608
6276.00   0.42633218   0.00809444
6277.00   0.43301076   0.00827530
6278.00   0.43438071   0.00828459
6279.00   0.42951488   0.00819909
6280.00   0.42673665   0.00804471
6281.00   0.42514357   0.00790643
6282.00   0.41783851   0.00785729
6283.00   0.41322285   0.00796035
6284.00   0.43268985   0.00807077
6285.00   0.43458629   0.00796475
6286.00   0.43140149   0.00815818
6287.00   0.43098867   0.00834072
6288.00   0.42657980   0.00828017
6289.00   0.42733359   0.00817833
6290.00   0.42422983   0.00794803
6291.00   0.42316014   0.00789298
6292.00   0.42150930   0.00810715
6293.00   0.41419840   0.00804859
6294.00   0.42318767   0.00792096
6295.00   0.41322476   0.00795532
6296.00   0.42546853   0.00798104
6297.00   0.43165478   0.00805851
6298.00   0.43689844   0.00856239
6299.00   0.41112769   0.01011889
6300.00   0.42395353   0.01155610
6301.00   0.43136346   0.01156247
6302.00   0.40581489   0.01069823
6303.00   0.42747894   0.00900769
6304.00   0.42198426   0.00794254
6305.00   0.38793510   0.00792433
6306.00   0.39807153   0.00831144
6307.00   0.41166931   0.00845670
6308.00   0.42242903   0.00840631
6309.00   0.40351868   0.00808912
6310.00   0.40763792   0.00787697
6311.00   0.43726504   0.00805922
6312.00   0.42751423   0.00805032
6313.00   0.42107892   0.00787304
6314.00   0.43385118   0.00802390
6315.00   0.43291980   0.00794871
6316.00   0.41687930   0.00771600
6317.00   0.42445171   0.00770376
6318.00   0.42250532   0.00768028
6319.00   0.41972077   0.00773949
6320.00   0.42484343   0.00776953
6321.00   0.41900319   0.00778401
6322.00   0.42701298   0.00792223
6323.00   0.42634618   0.00788887
6324.00   0.42930335   0.00777164
6325.00   0.44992894   0.00820677
6326.00   0.44935030   0.00830932
6327.00   0.40957436   0.00788284
6328.00   0.38942301   0.00781933
6329.00   0.42718697   0.00856863
6330.00   0.43477288   0.00871065
6331.00   0.41820389   0.00812463
6332.00   0.42846972   0.00795980
6333.00   0.42629677   0.00785465
6334.00   0.42340699   0.00781054
6335.00   0.41123241   0.00774702
6336.00   0.41141540   0.00787107
6337.00   0.42301166   0.00779011
6338.00   0.41426593   0.00760375
6339.00   0.41765940   0.00762808
6340.00   0.41185743   0.00769450
6341.00   0.40301543   0.00773791
6342.00   0.42504710   0.00780078
6343.00   0.42641801   0.00775634
6344.00   0.41116881   0.00783858
6345.00   0.41363615   0.00788368
6346.00   0.41942731   0.00799459
6347.00   0.39983812   0.00851080
6348.00   0.41217667   0.00818940
6349.00   0.40890425   0.00782117
6350.00   0.38686195   0.00833737
6351.00   0.40525824   0.00797041
6352.00   0.41354388   0.00766858
6353.00   0.41638830   0.00773092
6354.00   0.41339543   0.00762937
6355.00   0.42355251   0.00812359
6356.00   0.38073131   0.00906226
6357.00   0.39471507   0.00870317
6358.00   0.40982556   0.00777255
6359.00   0.39973992   0.00764650
6360.00   0.41649580   0.00760801
6361.00   0.41473541   0.00760198
6362.00   0.41935289   0.00873735
6363.00   0.39825356   0.00902640
6364.00   0.39116985   0.00900369
6365.00   0.41306397   0.00893142
6366.00   0.40770072   0.00833574
6367.00   0.41055286   0.00845899
6368.00   0.40450883   0.00770388
6369.00   0.41386479   0.00757695
6370.00   0.40650558   0.00757128
6371.00   0.40741900   0.00758445
6372.00   0.41300750   0.00762830
6373.00   0.40620703   0.00756575
6374.00   0.40548700   0.00756363
6375.00   0.41158468   0.00761424
6376.00   0.40491188   0.00758675
6377.00   0.41620484   0.00765068
6378.00   0.40831381   0.00765598
6379.00   0.39433458   0.00775147
6380.00   0.39431873   0.00815629
6381.00   0.42109895   0.00792750
6382.00   0.41357878   0.00760721
6383.00   0.41148603   0.00775600
6384.00   0.41444832   0.00793600
6385.00   0.41025546   0.00781103
6386.00   0.41699785   0.00780976
6387.00   0.41931003   0.00770604
6388.00   0.40725139   0.00798078
6389.00   0.40322891   0.00803477
6390.00   0.40704113   0.00756329
6391.00   0.42247769   0.00765667
6392.00   0.42592171   0.00766671
6393.00   0.41481501   0.00759565
6394.00   0.41314718   0.00757555
6395.00   0.39651734   0.00753724
6396.00   0.40649879   0.00766333
6397.00   0.41998437   0.00771303
6398.00   0.41225505   0.00762079
6399.00   0.40014622   0.00757581
6400.00   0.39685795   0.00748741
6401.00   0.40128511   0.00774365
6402.00   0.40801638   0.00813955
6403.00   0.40468618   0.00778990
6404.00   0.41734284   0.00789862
6405.00   0.41077715   0.00772795
6406.00   0.40557727   0.00757695
6407.00   0.40677744   0.00752692
6408.00   0.40603739   0.00753254
6409.00   0.40393770   0.00753303
6410.00   0.40883076   0.00755280
6411.00   0.41575238   0.00758046
6412.00   0.41409236   0.00761230
6413.00   0.38708007   0.00754085
6414.00   0.38884389   0.00754644
6415.00   0.41400334   0.00763584
6416.00   0.41886309   0.00778434
6417.00   0.39836276   0.00795319
6418.00   0.39146420   0.00753191
6419.00   0.39344716   0.00747848
6420.00   0.39634854   0.00752904
6421.00   0.40935886   0.00764760
6422.00   0.40486524   0.00762343
6423.00   0.41036063   0.00757540
6424.00   0.39899188   0.00754223
6425.00   0.39662182   0.00755768
6426.00   0.39460123   0.00753870
6427.00   0.40021446   0.00757592
6428.00   0.38880652   0.00811299
6429.00   0.37669426   0.00840758
6430.00   0.38787746   0.00825999
6431.00   0.40189832   0.00785171
6432.00   0.38992950   0.00781906
6433.00   0.38457128   0.00751372
6434.00   0.40070903   0.00750428
6435.00   0.40348518   0.00756513
6436.00   0.40035620   0.00751449
6437.00   0.40192291   0.00780801
6438.00   0.40749806   0.00778154
6439.00   0.42147660   0.00787989
6440.00   0.41161710   0.00785664
6441.00   0.39504322   0.00745084
6442.00   0.39924639   0.00755692
6443.00   0.39494622   0.00759411
6444.00   0.39280975   0.00756346
6445.00   0.40027797   0.00763836
6446.00   0.39940321   0.00800443
6447.00   0.40907502   0.00812494
6448.00   0.41231894   0.00768286
6449.00   0.40307081   0.00756030
6450.00   0.40021235   0.00756767
6451.00   0.41293719   0.00763697
6452.00   0.41083616   0.00767487
6453.00   0.40261957   0.00764868
6454.00   0.39583325   0.00757616
6455.00   0.40629822   0.00761912
6456.00   0.41103142   0.00765780
6457.00   0.38217181   0.00755182
6458.00   0.39005309   0.00760829
6459.00   0.40237379   0.00768003
6460.00   0.38661706   0.00757075
6461.00   0.39722574   0.00759488
6462.00   0.38720268   0.00755918
6463.00   0.41270328   0.00770021
6464.00   0.40121052   0.00782346
6465.00   0.38809630   0.00805781
6466.00   0.39678857   0.00810670
6467.00   0.39395195   0.00838016
6468.00   0.39510003   0.00800046
6469.00   0.40897214   0.00772149
6470.00   0.40740734   0.00779568
6471.00   0.40064573   0.00786303
6472.00   0.39721709   0.00780040
6473.00   0.40759417   0.00773584
6474.00   0.39772016   0.00757620
6475.00   0.37755880   0.00743065
6476.00   0.38444746   0.00747681
6477.00   0.40002543   0.00760708
6478.00   0.39616621   0.00765203
6479.00   0.38533360   0.00759899
6480.00   0.38854241   0.00756822
6481.00   0.38131857   0.00748445
6482.00   0.37823844   0.00744223
6483.00   0.38638473   0.00763285
6484.00   0.38393170   0.00763490
6485.00   0.40678382   0.00759362
6486.00   0.40166205   0.00762591
6487.00   0.37371874   0.00750233
6488.00   0.39457080   0.00808655
6489.00   0.40325058   0.00803466
6490.00   0.39328617   0.00751778
6491.00   0.39522851   0.00760381
6492.00   0.39908820   0.00760745
6493.00   0.39655441   0.00752651
6494.00   0.38766742   0.00741931
6495.00   0.37995273   0.00743711
6496.00   0.36758906   0.00751349
6497.00   0.39563906   0.00766051
6498.00   0.38922179   0.00796139
6499.00   0.39781860   0.00816414
6500.00   0.40415493   0.00811413
6501.00   0.40316081   0.00787762
6502.00   0.38869199   0.00765130
6503.00   0.39491737   0.00769032
6504.00   0.38458383   0.00771947
6505.00   0.37698945   0.00774055
6506.00   0.38328493   0.00777539
6507.00   0.40798599   0.00791702
6508.00   0.38467669   0.00850032
6509.00   0.38029498   0.00773517
6510.00   0.37148464   0.00748395
6511.00   0.39563075   0.00761016
6512.00   0.39134467   0.00756106
6513.00   0.39745107   0.00769487
6514.00   0.40366268   0.00782315
6515.00   0.37681296   0.00746963
6516.00   0.34859437   0.00741015
6517.00   0.37323380   0.00767589
6518.00   0.39529502   0.00760397
6519.00   0.38790151   0.00742778
6520.00   0.39147741   0.00747852
6521.00   0.40020487   0.00759925
6522.00   0.38965413   0.00762425
6523.00   0.39280739   0.00763453
6524.00   0.39029574   0.00759863
6525.00   0.40442199   0.00763516
6526.00   0.40811598   0.00762478
6527.00   0.38891464   0.00751988
6528.00   0.39398241   0.00751379
6529.00   0.40645376   0.00766941
6530.00   0.40162313   0.00773331
6531.00   0.38474411   0.00761635
6532.00   0.38147891   0.00790764
6533.00   0.39193937   0.00811205
6534.00   0.39499217   0.00797080
6535.00   0.39858824   0.00782918
6536.00   0.40147001   0.00759516
6537.00   0.40350208   0.00757939
6538.00   0.40577453   0.00764849
6539.00   0.39491615   0.00756557
6540.00   0.38782099   0.00750394
6541.00   0.38708627   0.00750054
6542.00   0.38260967   0.00748548
6543.00   0.37912613   0.00759176
6544.00   0.38171190   0.00781967
6545.00   0.37690189   0.00756639
6546.00   0.38837922   0.00750757
6547.00   0.38647896   0.00748124
6548.00   0.38857168   0.00748528
6549.00   0.38518298   0.00743071
6550.00   0.38641098   0.00756465
6551.00   0.38245934   0.00752278
6552.00   0.39485294   0.00761170
6553.00   0.41473487   0.00820385
6554.00   0.38569164   0.00815342
6555.00   0.38847440   0.00784514
6556.00   0.39116645   0.00755038
6557.00   0.39226836   0.00742692
6558.00   0.39915586   0.00764069
6559.00   0.40994817   0.00743628
6560.00   0.39666641   0.00748058
6561.00   0.37960318   0.00770732
6562.00   0.39086941   0.00738200
6563.00   0.39937955   0.00732175
6564.00   0.38828456   0.00728072
6565.00   0.39272499   0.00725022
6566.00   0.40004444   0.00726091
6567.00   0.39636755   0.00759933
6568.00   0.39598793   0.00762080
6569.00   0.39255130   0.00746087
6570.00   0.39694890   0.00753127
6571.00   0.38369456   0.00778331
6572.00   0.38798106   0.00758084
6573.00   0.40242046   0.00740077
6574.00   0.40274948   0.00740435
6575.00   0.38689753   0.00735760
6576.00   0.38633189   0.00752972
6577.00   0.38925618   0.00772572
6578.00   0.38708836   0.00777251
6579.00   0.40875626   0.00783608
6580.00   0.41487622   0.00770264
6581.00   0.39411661   0.00746760
6582.00   0.39729321   0.00750182
6583.00   0.39051676   0.00743199
6584.00   0.38493517   0.00741621
6585.00   0.39256942   0.00743599
6586.00   0.38982463   0.00737311
6587.00   0.39151859   0.00743158
6588.00   0.40304518   0.00772140
6589.00   0.40532374   0.00751706
6590.00   0.40213150   0.00764616
6591.00   0.42010701   0.00827863
6592.00   0.41545784   0.00758026
6593.00   0.40334767   0.00740069
6594.00   0.40073910   0.00737650
6595.00   0.39313108   0.00739149
6596.00   0.39751539   0.00746181
6597.00   0.40151715   0.00752131
6598.00   0.39643461   0.00748085
6599.00   0.39532226   0.00743004
6600.00   0.40401852   0.00751458
6601.00   0.39673093   0.00744804
6602.00   0.38270462   0.00736455
6603.00   0.40922895   0.00765117
6604.00   0.40602648   0.00765582
6605.00   0.39441502   0.00772515
6606.00   0.40423965   0.00758146
6607.00   0.39559561   0.00740966
6608.00   0.39422178   0.00736680
6609.00   0.39736605   0.00739618
6610.00   0.39546633   0.00742694
6611.00   0.39522868   0.00735146
6612.00   0.39755189   0.00744321
6613.00   0.38054794   0.00775388
6614.00   0.39760381   0.00769933
6615.00   0.39296001   0.00734753
6616.00   0.37397182   0.00726193
6617.00   0.38629392   0.00741330
6618.00   0.39299282   0.00740925
6619.00   0.40394747   0.00739564
6620.00   0.39607471   0.00738539
6621.00   0.37896007   0.00730188
6622.00   0.37718409   0.00723760
6623.00   0.37255579   0.00736614
6624.00   0.38769048   0.00755102
6625.00   0.38584572   0.00761509
6626.00   0.38363177   0.00839490
6627.00   0.40608758   0.00816925
6628.00   0.40399170   0.00740914
6629.00   0.37663317   0.00729919
6630.00   0.37662548   0.00728762
6631.00   0.38311958   0.00729487
6632.00   0.37163305   0.00726148
6633.00   0.36566418   0.00757872
6634.00   0.36856908   0.00747831
6635.00   0.39009175   0.00727218
6636.00   0.39855570   0.00735323
6637.00   0.39083627   0.00730964
6638.00   0.39106342   0.00730820
6639.00   0.38190067   0.00739688
6640.00   0.40040720   0.00798668
6641.00   0.35972825   0.00758097
6642.00   0.36104238   0.00812491
6643.00   0.38915741   0.00864529
6644.00   0.42041993   0.00792447
6645.00   0.39745626   0.00727208
6646.00   0.39424607   0.00724077
6647.00   0.39446640   0.00726791
6648.00   0.38334191   0.00722164
6649.00   0.39437309   0.00725873
6650.00   0.39515164   0.00728798
6651.00   0.39454967   0.00728824
6652.00   0.39378285   0.00727179
6653.00   0.39343026   0.00728031
6654.00   0.38914692   0.00724736
6655.00   0.39247245   0.00721378
6656.00   0.38867384   0.00745712
6657.00   0.37841502   0.00769771
6658.00   0.37017184   0.00724944
6659.00   0.38594800   0.00719301
6660.00   0.38048762   0.00717613
6661.00   0.37939507   0.00730712
6662.00   0.37587374   0.00729648
6663.00   0.38127887   0.00715036
6664.00   0.39881855   0.00720549
6665.00   0.39006698   0.00732621
6666.00   0.39267349   0.00735932
6667.00   0.38094813   0.00718120
6668.00   0.38539600   0.00721079
6669.00   0.40754008   0.00731078
6670.00   0.40752739   0.00729429
6671.00   0.38551539   0.00718645
6672.00   0.38696748   0.00719775
6673.00   0.39923593   0.00725262
6674.00   0.38100034   0.00713134
6675.00   0.38411701   0.00736800
6676.00   0.38921154   0.00780508
6677.00   0.36845076   0.00731265
6678.00   0.39532030   0.00723888
6679.00   0.39321584   0.00736323
6680.00   0.39424923   0.00733671
6681.00   0.37740552   0.00712408
6682.00   0.37482631   0.00713622
6683.00   0.37999105   0.00714877
6684.00   0.37564808   0.00715335
6685.00   0.36536437   0.00733454
6686.00   0.38132930   0.00723028
6687.00   0.39434981   0.00725187
6688.00   0.38775152   0.00740290
6689.00   0.39419308   0.00727486
6690.00   0.39093566   0.00746586
6691.00   0.36877808   0.00731055
6692.00   0.38359743   0.00721328
6693.00   0.39144689   0.00720533
6694.00   0.38956714   0.00710713
6695.00   0.40889311   0.00764847
6696.00   0.40721673   0.00756634
6697.00   0.40212575   0.00718615
6698.00   0.38554138   0.00711803
6699.00   0.38729215   0.00715121
6700.00   0.39490348   0.00720473
6701.00   0.40423924   0.00724379
6702.00   0.38786656   0.00716879
6703.00   0.38136488   0.00711315
6704.00   0.38865191   0.00713140
6705.00   0.38420564   0.00711982
6706.00   0.38376346   0.00715368
6707.00   0.39483720   0.00729428
6708.00   0.39321902   0.00730018
6709.00   0.37909871   0.00725554
6710.00   0.37790635   0.00722528
6711.00   0.38895029   0.00713812
6712.00   0.39491734   0.00733192
6713.00   0.38619816   0.00727688
6714.00   0.38385940   0.00706241
6715.00   0.38252941   0.00715435
6716.00   0.38436604   0.00708848
6717.00   0.37690857   0.00727006
6718.00   0.37084231   0.00785260
6719.00   0.38058621   0.00747745
6720.00   0.39269811   0.00786882
6721.00   0.40673411   0.00782881
6722.00   0.39339101   0.00714293
6723.00   0.39071912   0.00712817
6724.00   0.37473118   0.00701527
6725.00   0.37837678   0.00701110
6726.00   0.38146040   0.00701471
6727.00   0.38576949   0.00704897
6728.00   0.37689286   0.00720198
6729.00   0.38524324   0.00727688
6730.00   0.39273286   0.00711379
6731.00   0.38779455   0.00707515
6732.00   0.38147846   0.00703275
6733.00   0.37665379   0.00698283
6734.00   0.39022082   0.00702201
6735.00   0.39336222   0.00705842
6736.00   0.39452851   0.00707877
6737.00   0.38940310   0.00708252
6738.00   0.37979478   0.00710854
6739.00   0.38894558   0.00703164
6740.00   0.38185531   0.00716076
6741.00   0.37294731   0.00736132
6742.00   0.38400626   0.00760224
6743.00   0.37359843   0.00729506
6744.00   0.37715942   0.00694574
6745.00   0.39141628   0.00704729
6746.00   0.38728279   0.00700369
6747.00   0.38601902   0.00707253
6748.00   0.37745720   0.00708368
6749.00   0.38715661   0.00702997
6750.00   0.42274201   0.00734485
6751.00   0.54987943   0.00876899
6752.00   0.70060599   0.01021744
6753.00   0.67393494   0.01032266
6754.00   0.54539430   0.00919435
6755.00   0.45731178   0.00768986
6756.00   0.41277826   0.00732421
6757.00   0.38161403   0.00725586
6758.00   0.38268405   0.00692569
6759.00   0.38052413   0.00692289
6760.00   0.38524050   0.00697459
6761.00   0.38938051   0.00697528
6762.00   0.39115828   0.00695154
6763.00   0.37920493   0.00691543
6764.00   0.38145399   0.00693942
6765.00   0.40535301   0.00710447
6766.00   0.39182824   0.00698308
6767.00   0.39072645   0.00692250
6768.00   0.39512527   0.00692610
6769.00   0.37937117   0.00699933
6770.00   0.38186300   0.00734396
6771.00   0.38648796   0.00692155
6772.00   0.38469905   0.00689139
6773.00   0.40742445   0.00706108
6774.00   0.40522039   0.00712672
6775.00   0.38323328   0.00691499
6776.00   0.38454211   0.00693565
6777.00   0.38107967   0.00694040
6778.00   0.37794667   0.00692875
6779.00   0.38798106   0.00695678
6780.00   0.40639034   0.00711200
6781.00   0.38587016   0.00694960
6782.00   0.39236987   0.00693880
6783.00   0.38634205   0.00689741
6784.00   0.38525757   0.00687614
6785.00   0.37643492   0.00681823
6786.00   0.38515413   0.00704170
6787.00   0.39306435   0.00730194
6788.00   0.38703895   0.00695972
6789.00   0.38486427   0.00686859
6790.00   0.38407755   0.00689576
6791.00   0.38924688   0.00684628
6792.00   0.38306385   0.00721358
6793.00   0.37316719   0.00707253
6794.00   0.36758840   0.00682789
6795.00   0.37631899   0.00686511
6796.00   0.39768618   0.00689378
6797.00   0.40865046   0.00695897
6798.00   0.38591403   0.00685263
6799.00   0.37880173   0.00682967
6800.00   0.37996933   0.00683906
6801.00   0.37944081   0.00680672
6802.00   0.37534699   0.00680688
6803.00   0.37415880   0.00681688
6804.00   0.37831664   0.00683404
6805.00   0.36791044   0.00678544
6806.00   0.37268808   0.00673796
6807.00   0.36871982   0.00672698
6808.00   0.37520605   0.00675565
6809.00   0.38342658   0.00678950
6810.00   0.37703615   0.00678337
6811.00   0.38970217   0.00683088
6812.00   0.38473681   0.00678636
6813.00   0.37022096   0.00672122
6814.00   0.36502892   0.00670004
6815.00   0.36163515   0.00665710
6816.00   0.37926257   0.00687817
6817.00   0.37158495   0.00720720
6818.00   0.36779308   0.00673249
6819.00   0.36878479   0.00666241
6820.00   0.37272018   0.00668797
6821.00   0.37024361   0.00668116
6822.00   0.37916380   0.00678113
6823.00   0.36693293   0.00690930
6824.00   0.35840362   0.00679218
6825.00   0.37593675   0.00669113
6826.00   0.36382991   0.00676418
6827.00   0.36311531   0.00689205
6828.00   0.37099740   0.00714830
6829.00   0.34816211   0.00794464
6830.00   0.34375352   0.00733396
6831.00   0.35917842   0.00707304
6832.00   0.35350633   0.00688799
6833.00   0.35450631   0.00698988
6834.00   0.35997990   0.00721808
6835.00   0.37659293   0.00730119
6836.00   0.37344384   0.00710023
6837.00   0.37648982   0.00695954
6838.00   0.37253508   0.00700531
6839.00   0.35317791   0.00693811
6840.00   0.36316502   0.00684513
6841.00   0.38216180   0.00683750
6842.00   0.37295598   0.00682577
6843.00   0.37441409   0.00679558
6844.00   0.36575305   0.00671469
6845.00   0.37730414   0.00676627
6846.00   0.37877035   0.00673992
6847.00   0.36269557   0.00657654
6848.00   0.36729673   0.00657675
6849.00   0.37164727   0.00666754
6850.00   0.37062454   0.00664834
6851.00   0.36000401   0.00657912
6852.00   0.35686499   0.00659775
6853.00   0.36736435   0.00664390
6854.00   0.37634885   0.00666834
6855.00   0.37565094   0.00663409
6856.00   0.38145018   0.00697245
6857.00   0.38436770   0.00704887
6858.00   0.36325175   0.00671986
6859.00   0.36222866   0.00671491
6860.00   0.36828279   0.00656382
6861.00   0.36876547   0.00663589
6862.00   0.35652679   0.00694636
6863.00   0.36292127   0.00778174
6864.00   0.35672688   0.00787625
6865.00   0.36712456   0.00772922
6866.00   0.34449366   0.00734317
6867.00   0.36529660   0.00786004
6868.00   0.36976361   0.00870081
6869.00   0.36578396   0.00815236
6870.00   0.37259838   0.00794568
6871.00   0.37296724   0.00839219
6872.00   0.36343938   0.00814805
6873.00   0.36961251   0.00757175
6874.00   0.36891359   0.00741819
6875.00   0.37079236   0.00728593
6876.00   0.37803215   0.00779206
6877.00   0.38338679   0.00747946
6878.00   0.36723942   0.00695430
6879.00   0.37060213   0.00691727
6880.00   0.37433335   0.00692217
6881.00   0.37484688   0.00688115
6882.00   0.36101091   0.00683278
6883.00   0.35769606   0.00680825
6884.00   0.35930711   0.00679081
6885.00   0.35222489   0.00689205
6886.00   0.35417390   0.00698568
6887.00   0.35394001   0.00688555
6888.00   0.35959750   0.00709024
6889.00   0.36526287   0.00736229
6890.00   0.37565655   0.00744250
6891.00   0.36269224   0.00714004
6892.00   0.34296638   0.00689590
6893.00   0.34635442   0.00696478
6894.00   0.33881029   0.00701161
6895.00   0.34587640   0.00718536
6896.00   0.36115825   0.00761562
6897.00   0.36256975   0.00710173
6898.00   0.36778253   0.00683937
6899.00   0.35873675   0.00695550
6900.00   0.33864945   0.00712761
6901.00   0.34669513   0.00699423
6902.00   0.36627126   0.00690603
6903.00   0.36451209   0.00694426
6904.00   0.35906416   0.00685666
6905.00   0.36947453   0.00670974
6906.00   0.36265835   0.00653202
6907.00   0.36440575   0.00668403
6908.00   0.37369013   0.00707820
6909.00   0.38444549   0.00702517
6910.00   0.40184349   0.00692303
6911.00   0.39283368   0.00692120
6912.00   0.37962991   0.00714591
6913.00   0.33932480   0.00720183
6914.00   0.36374366   0.00700676
6915.00   0.36057693   0.00665562
6916.00   0.35942164   0.00650452
6917.00   0.35329312   0.00656739
6918.00   0.35267174   0.00667908
6919.00   0.35101998   0.00660715
6920.00   0.33595735   0.00638478
6921.00   0.34419692   0.00655634
6922.00   0.35929763   0.00707133
6923.00   0.37979710   0.00760371
6924.00   0.37093580   0.00747573
6925.00   0.38292304   0.00713299
6926.00   0.37889361   0.00680491
6927.00   0.36698866   0.00661203
6928.00   0.33492750   0.00673279
6929.00   0.34664577   0.00702016
6930.00   0.36493322   0.00669987
6931.00   0.35606825   0.00675334
6932.00   0.35518131   0.00679200
6933.00   0.37124413   0.00666651
6934.00   0.35515538   0.00652631
6935.00   0.34976286   0.00648582
6936.00   0.36363852   0.00659210
6937.00   0.36182180   0.00669824
6938.00   0.36224520   0.00712087
6939.00   0.32930738   0.00698012
6940.00   0.34498021   0.00718146
6941.00   0.37032658   0.00737043
6942.00   0.35584477   0.00692480
6943.00   0.35919780   0.00671031
6944.00   0.37569597   0.00657306
6945.00   0.36418843   0.00671529
6946.00   0.34228230   0.00677729
6947.00   0.35843995   0.00692052
6948.00   0.36507833   0.00731203
6949.00   0.35701808   0.00727603
6950.00   0.36325818   0.00723572
6951.00   0.35709757   0.00699768
6952.00   0.34577507   0.00662210
6953.00   0.34777629   0.00649813
6954.00   0.34573257   0.00650251
6955.00   0.33489111   0.00648430
6956.00   0.34361863   0.00662104
6957.00   0.35042658   0.00664973
6958.00   0.35354984   0.00652279
6959.00   0.36120945   0.00663893
6960.00   0.33891949   0.00709026
6961.00   0.34564811   0.00707346
6962.00   0.35725844   0.00641590
6963.00   0.35977924   0.00643912
6964.00   0.33639199   0.00637664
6965.00   0.33638531   0.00636153
6966.00   0.34654000   0.00635351
6967.00   0.34801483   0.00632300
6968.00   0.35293135   0.00645916
6969.00   0.34528977   0.00680564
6970.00   0.33932382   0.00661881
6971.00   0.35162720   0.00654335
6972.00   0.33996183   0.00638865
6973.00   0.33222246   0.00635622
6974.00   0.32708830   0.00654496
6975.00   0.34612060   0.00636073
6976.00   0.35297728   0.00637506
6977.00   0.33935696   0.00648958
6978.00   0.34155065   0.00672346
6979.00   0.34814411   0.00677477
6980.00   0.34930962   0.00662830
6981.00   0.34518155   0.00643406
6982.00   0.34516317   0.00639581
6983.00   0.34906006   0.00636706
6984.00   0.35174108   0.00658082
6985.00   0.35200608   0.00669513
6986.00   0.35230803   0.00671910
6987.00   0.33664525   0.00677814
6988.00   0.34403920   0.00680698
6989.00   0.34514320   0.00688683
6990.00   0.34109879   0.00681015
6991.00   0.33804685   0.00643666
6992.00   0.33825868   0.00630103
6993.00   0.34736928   0.00644435
6994.00   0.34149790   0.00638319
6995.00   0.33596978   0.00624681
6996.00   0.33591235   0.00643654
6997.00   0.34344637   0.00652706
6998.00   0.34195626   0.00645379
6999.00   0.33684349   0.00636774
7000.00   0.33541858   0.00627924
7001.00   0.33959252   0.00630630
7002.00   0.34467578   0.00633388
7003.00   0.34698799   0.00642965
7004.00   0.34583735   0.00652510
7005.00   0.33679485   0.00646421
7006.00   0.33706880   0.00633845
7007.00   0.34638041   0.00629987
7008.00   0.33028787   0.00620564
7009.00   0.32716775   0.00623192
7010.00   0.32929143   0.00638093
7011.00   0.34022409   0.00649670
7012.00   0.33673432   0.00639419
7013.00   0.33318341   0.00639709
7014.00   0.32090828   0.00662211
7015.00   0.32050604   0.00658537
7016.00   0.32420921   0.00683357
7017.00   0.33474392   0.00640206
7018.00   0.32495868   0.00610000
7019.00   0.32557949   0.00614613
7020.00   0.34881711   0.00629356
7021.00   0.33773097   0.00626804
7022.00   0.32514071   0.00623176
7023.00   0.33775783   0.00622865
7024.00   0.34274751   0.00618106
7025.00   0.33319181   0.00617506
7026.00   0.31901851   0.00630840
7027.00   0.33660519   0.00641249
7028.00   0.34708592   0.00634403
7029.00   0.34649977   0.00665882
7030.00   0.33291787   0.00628957
7031.00   0.33813316   0.00614580
7032.00   0.31102282   0.00607169
7033.00   0.31382102   0.00613553
7034.00   0.33553952   0.00622336
7035.00   0.33948231   0.00622063
7036.00   0.34141955   0.00633462
7037.00   0.33195239   0.00615341
7038.00   0.33209836   0.00611596
7039.00   0.33232689   0.00615446
7040.00   0.33497041   0.00619002
7041.00   0.33514118   0.00621352
7042.00   0.33510739   0.00619382
7043.00   0.34047040   0.00625193
7044.00   0.34833544   0.00622705
7045.00   0.32609278   0.00611016
7046.00   0.32108995   0.00610712
7047.00   0.33296007   0.00633498
7048.00   0.34393194   0.00660111
7049.00   0.33759046   0.00639098
7050.00   0.33447728   0.00625416
7051.00   0.34105492   0.00650972
7052.00   0.33728510   0.00652348
7053.00   0.32243812   0.00615611
7054.00   0.33243012   0.00614496
7055.00   0.33273226   0.00614102
7056.00   0.33817405   0.00616033
7057.00   0.33209097   0.00612835
7058.00   0.31659880   0.00608027
7059.00   0.32347152   0.00603763
7060.00   0.32087243   0.00615491
7061.00   0.32004535   0.00637547
7062.00   0.32601044   0.00631254
7063.00   0.32568845   0.00640425
7064.00   0.32841769   0.00630675
7065.00   0.33596200   0.00617491
7066.00   0.33344239   0.00611800
7067.00   0.32449907   0.00608755
7068.00   0.31914341   0.00602338
7069.00   0.31976396   0.00600206
7070.00   0.33115399   0.00610258
7071.00   0.33031166   0.00606894
7072.00   0.32004043   0.00612551
7073.00   0.30952996   0.00643244
7074.00   0.31366217   0.00621986
7075.00   0.33249635   0.00602955
7076.00   0.33195555   0.00606505
7077.00   0.31281579   0.00605453
7078.00   0.31582075   0.00604267
7079.00   0.31381989   0.00625867
7080.00   0.31775099   0.00656511
7081.00   0.33495408   0.00612065
7082.00   0.34803146   0.00619379
7083.00   0.32973063   0.00601232
7084.00   0.32052213   0.00599893
7085.00   0.31882644   0.00594550
7086.00   0.32678998   0.00596637
7087.00   0.34840238   0.00628645
7088.00   0.35601166   0.00678399
7089.00   0.34187669   0.00636452
7090.00   0.32771033   0.00612726
7091.00   0.33591413   0.00612269
7092.00   0.33577275   0.00606297
7093.00   0.31971085   0.00600281
7094.00   0.32526624   0.00602489
7095.00   0.32064050   0.00594791
7096.00   0.31977651   0.00591334
7097.00   0.32202077   0.00592212
7098.00   0.32514647   0.00591954
7099.00   0.32471791   0.00592367
7100.00   0.32081139   0.00647352
7101.00   0.32368046   0.00649060
7102.00   0.32707328   0.00619234
7103.00   0.33410284   0.00602223
7104.00   0.32969660   0.00596996
7105.00   0.32728624   0.00595916
7106.00   0.31501874   0.00588877
7107.00   0.31558055   0.00591144
7108.00   0.31392643   0.00590442
7109.00   0.31708130   0.00585685
7110.00   0.31706524   0.00631680
7111.00   0.31240642   0.00634747
7112.00   0.31861302   0.00604176
7113.00   0.32003689   0.00594139
7114.00   0.33340132   0.00594130
7115.00   0.33251882   0.00597466
7116.00   0.32075176   0.00594148
7117.00   0.31393206   0.00589946
7118.00   0.33085650   0.00599656
7119.00   0.33396420   0.00597659
7120.00   0.32033283   0.00596950
7121.00   0.30956852   0.00601546
7122.00   0.31487191   0.00597608
7123.00   0.32421309   0.00594152
7124.00   0.32616439   0.00589749
7125.00   0.31626618   0.00636470
7126.00   0.30883253   0.00625386
7127.00   0.31908602   0.00591461
7128.00   0.33101898   0.00600182
7129.00   0.32819209   0.00599627
7130.00   0.32330981   0.00614751
7131.00   0.33254892   0.00605722
7132.00   0.33166450   0.00603312
7133.00   0.31585148   0.00610841
7134.00   0.32282472   0.00601483
7135.00   0.33434886   0.00598349
7136.00   0.32890040   0.00594975
7137.00   0.32780626   0.00589304
7138.00   0.32438886   0.00613601
7139.00   0.33523643   0.00640132
7140.00   0.34537828   0.00619287
7141.00   0.32571536   0.00607780
7142.00   0.32439712   0.00608877
7143.00   0.32328874   0.00603041
7144.00   0.31666875   0.00607727
7145.00   0.32114956   0.00605514
7146.00   0.32635856   0.00597185
7147.00   0.32310128   0.00596862
7148.00   0.32141393   0.00598433
7149.00   0.32852414   0.00593140
7150.00   0.32293805   0.00602730
7151.00   0.31592059   0.00607301
7152.00   0.32549149   0.00587858
7153.00   0.32315016   0.00588258
7154.00   0.32299083   0.00586842
7155.00   0.33682984   0.00597043
7156.00   0.33923957   0.00620217
7157.00   0.33096015   0.00612766
7158.00   0.31662306   0.00590306
7159.00   0.32222164   0.00594137
7160.00   0.32741037   0.00598846
7161.00   0.33513439   0.00602681
7162.00   0.32832763   0.00602486
7163.00   0.31717801   0.00600632
7164.00   0.32368845   0.00631467
7165.00   0.32327706   0.00633686
7166.00   0.32324558   0.00609732
7167.00   0.31929204   0.00622718
7168.00   0.33723801   0.00639780
7169.00   0.33334404   0.00645798
7170.00   0.32743010   0.00641007
7171.00   0.32604989   0.00684447
7172.00   0.33387798   0.00673037
7173.00   0.32745111   0.00653877
7174.00   0.34739286   0.00674132
7175.00   0.34131622   0.00738894
7176.00   0.33475232   0.00680454
7177.00   0.32524547   0.00648818
7178.00   0.32740608   0.00631190
7179.00   0.33530539   0.00628325
7180.00   0.32013798   0.00621051
7181.00   0.32342836   0.00628849
7182.00   0.34232950   0.00645583
7183.00   0.32220781   0.00640917
7184.00   0.30430400   0.00662198
7185.00   0.31846815   0.00724120
7186.00   0.33082002   0.00708615
7187.00   0.31731743   0.00653424
7188.00   0.32995704   0.00634304
7189.00   0.31830531   0.00589739
7190.00   0.32690185   0.00627147
7191.00   0.32507885   0.00680596
7192.00   0.32279927   0.00671571
7193.00   0.32544154   0.00654871
7194.00   0.33566844   0.00637788
7195.00   0.31550902   0.00637770
7196.00   0.30883488   0.00634960
7197.00   0.31660673   0.00620854
7198.00   0.32488430   0.00627527
7199.00   0.32019880   0.00648404
7200.00   0.33035070   0.00726665
7201.00   0.32418817   0.00654115
7202.00   0.32029551   0.00607243
7203.00   0.31091219   0.00614266
7204.00   0.32047671   0.00632277
7205.00   0.33012211   0.00635901
7206.00   0.31593463   0.00612460
7207.00   0.31471390   0.00600264
7208.00   0.31880963   0.00602078
7209.00   0.31445682   0.00597035
7210.00   0.32141578   0.00601697
7211.00   0.32619113   0.00596456
7212.00   0.32739919   0.00586753
7213.00   0.31644952   0.00577023
7214.00   0.30646664   0.00576630
7215.00   0.30506209   0.00586500
7216.00   0.31427443   0.00594642
7217.00   0.31583205   0.00586306
7218.00   0.31662261   0.00585888
7219.00   0.32045975   0.00598371
7220.00   0.31522864   0.00588141
7221.00   0.31265938   0.00574587
7222.00   0.32492676   0.00637967
7223.00   0.32256132   0.00639450
7224.00   0.31878349   0.00589632
7225.00   0.31658387   0.00585743
7226.00   0.31784573   0.00596253
7227.00   0.31970602   0.00600691
7228.00   0.30274427   0.00594405
7229.00   0.29812884   0.00610787
7230.00   0.31051046   0.00633997
7231.00   0.33166599   0.00677054
7232.00   0.33771145   0.00699633
7233.00   0.31806111   0.00678074
7234.00   0.31305659   0.00664176
7235.00   0.32685831   0.00652667
7236.00   0.32016134   0.00637441
7237.00   0.31446445   0.00630339
7238.00   0.31763566   0.00651531
7239.00   0.30910712   0.00734779
7240.00   0.30904186   0.00794840
7241.00   0.31773257   0.00776101
7242.00   0.31443003   0.00734395
7243.00   0.31356221   0.00745706
7244.00   0.33134887   0.00849285
7245.00   0.32420233   0.00873297
7246.00   0.31507719   0.00769292
7247.00   0.31889057   0.00707333
7248.00   0.30919915   0.00641285
7249.00   0.30403730   0.00655772
7250.00   0.30354601   0.00643435
7251.00   0.30129698   0.00642596
7252.00   0.32163852   0.00738157
7253.00   0.33327186   0.00713867
7254.00   0.31643245   0.00635261
7255.00   0.32065147   0.00624535
7256.00   0.31792790   0.00641225
7257.00   0.32296494   0.00629799
7258.00   0.32223403   0.00619810
7259.00   0.31832886   0.00606441
7260.00   0.31288218   0.00628645
7261.00   0.30399656   0.00623411
7262.00   0.32580239   0.00613671
7263.00   0.34422618   0.00718374
7264.00   0.31730896   0.00698946
7265.00   0.30707127   0.00635979
7266.00   0.32272598   0.00630578
7267.00   0.31884545   0.00654700
7268.00   0.31942606   0.00608841
7269.00   0.30996966   0.00611195
7270.00   0.29476368   0.00596423
7271.00   0.29912794   0.00601539
7272.00   0.29130864   0.00649536
7273.00   0.28690296   0.00653272
7274.00   0.31118453   0.00675938
7275.00   0.31697637   0.00818852
7276.00   0.30915269   0.00958783
7277.00   0.30817902   0.00930401
7278.00   0.30831426   0.00782933
7279.00   0.30610639   0.00665583
7280.00   0.29810619   0.00615469
7281.00   0.28387618   0.00608200
7282.00   0.28410637   0.00642817
7283.00   0.29251581   0.00637031
7284.00   0.30364072   0.00657909
7285.00   0.30797121   0.00668489
7286.00   0.28834707   0.00657930
7287.00   0.28864217   0.00654668
7288.00   0.28471971   0.00697506
7289.00   0.30005306   0.00676853
7290.00   0.30486333   0.00634138
7291.00   0.31073663   0.00621943
7292.00   0.31230107   0.00606505
7293.00   0.30001175   0.00600277
7294.00   0.28992844   0.00656168
7295.00   0.27614123   0.00669426
7296.00   0.30086327   0.00680916
7297.00   0.29657960   0.00625388
#7298.00   0.39769560   0.00831119
#7299.00   1.01286650   0.01369714
#7300.00   1.75728190   0.01750026
#7301.00   1.40925264   0.01580312
#7302.00   0.54050612   0.01028264
7303.00   0.29090703   0.00708628
7304.00   0.31735474   0.00689664
7305.00   0.30705461   0.00706742
7306.00   0.28290394   0.00651452
7307.00   0.28480935   0.00617013
7308.00   0.28119320   0.00621062
7309.00   0.27037841   0.00651310
7310.00   0.29247999   0.00624622
7311.00   0.29283077   0.00653849
7312.00   0.28986257   0.00648840
7313.00   0.29065603   0.00595151
7314.00   0.30386996   0.00625403
7315.00   0.29425979   0.00718644
7316.00   0.30849802   0.00834823
7317.00   0.28772122   0.00814988
7318.00   0.28258112   0.00741616
7319.00   0.27218455   0.00659459
7320.00   0.29480600   0.00607553
7321.00   0.30122250   0.00614035
7322.00   0.29423529   0.00567914
7323.00   0.28771341   0.00595243
7324.00   0.27769762   0.00623077
7325.00   0.28639013   0.00628187
7326.00   0.29574466   0.00589648
7327.00   0.29170823   0.00630525
7328.00   0.28199929   0.00683645
7329.00   0.27216780   0.00748875
7330.00   0.26733193   0.00685929
7331.00   0.27177674   0.00660224
7332.00   0.28916135   0.00616500
7333.00   0.30163857   0.00605568
7334.00   0.28194770   0.00572168
7335.00   0.27827871   0.00560803
7336.00   0.28881621   0.00553980
7337.00   0.28226441   0.00639129
7338.00   0.24960235   0.00720040
7339.00   0.27843443   0.00730396
7340.00   0.29944932   0.00760822
7341.00   0.26172596   0.00918797
7342.00   0.30680701   0.00864448
7343.00   0.28585458   0.00691699
7344.00   0.27934536   0.00672352
7345.00   0.29802793   0.00634703
7346.00   0.30732509   0.00627042
7347.00   0.30030715   0.00635909
7348.00   0.29097599   0.00620468
7349.00   0.29044965   0.00638330
7350.00   0.28339988   0.00598974
7351.00   0.30827129   0.00618923
7352.00   0.30748385   0.00596584
7353.00   0.29293561   0.00574939
7354.00   0.29135603   0.00571556
7355.00   0.27890569   0.00579595
7356.00   0.30674380   0.00650214
7357.00   0.31409019   0.00684692
7358.00   0.29310057   0.00681459
7359.00   0.29443973   0.00684955
7360.00   0.28594238   0.00667160
7361.00   0.28658232   0.00603495
7362.00   0.30573839   0.00591268
7363.00   0.28218246   0.00651961
7364.00   0.30076605   0.00648161
7365.00   0.29809034   0.00595753
7366.00   0.30085641   0.00632010
7367.00   0.30896533   0.00670667
7368.00   0.30426556   0.00685097
7369.00   0.29311341   0.00714514
7370.00   0.29201055   0.00726127
7371.00   0.30191797   0.00694568
7372.00   0.29370451   0.00628308
7373.00   0.29255438   0.00619297
7374.00   0.29262233   0.00599521
7375.00   0.28201801   0.00577935
7376.00   0.29006702   0.00579782
7377.00   0.27860233   0.00630390
7378.00   0.29448330   0.00592609
7379.00   0.30244064   0.00596969
7380.00   0.30242735   0.00656235
7381.00   0.28216088   0.00657487
7382.00   0.23899996   0.00626545
7383.00   0.23453619   0.00668107
7384.00   0.26382715   0.00665413
7385.00   0.29558957   0.00617141
7386.00   0.29139239   0.00606117
7387.00   0.29184014   0.00609653
7388.00   0.28677952   0.00581344
7389.00   0.28941238   0.00571558
7390.00   0.29711241   0.00577027
7391.00   0.29572451   0.00598149
7392.00   0.30005732   0.00606836
7393.00   0.29971290   0.00618527
7394.00   0.29200673   0.00612787
7395.00   0.28787112   0.00570192
7396.00   0.28620815   0.00570871
7397.00   0.28385943   0.00562449
7398.00   0.29744697   0.00557677
7399.00   0.29801390   0.00569065
7400.00   0.29785979   0.00594404
7401.00   0.28699672   0.00626694
7402.00   0.29522312   0.00646567
7403.00   0.30720073   0.00644307
7404.00   0.27717078   0.00608467
7405.00   0.28251803   0.00612840
7406.00   0.29566044   0.00595159
7407.00   0.30799240   0.00570385
7408.00   0.28709123   0.00598623
7409.00   0.25307167   0.00601146
7410.00   0.27874014   0.00566281
7411.00   0.27297965   0.00592377
7412.00   0.26208937   0.00542592
7413.00   0.27294391   0.00529069
7414.00   0.27547929   0.00533634
7415.00   0.27574754   0.00528695
7416.00   0.28737751   0.00536400
7417.00   0.28072375   0.00533949
7418.00   0.27983439   0.00536166
7419.00   0.27055883   0.00573560
7420.00   0.27154073   0.00557092
7421.00   0.27682173   0.00526978
7422.00   0.25585669   0.00563941
7423.00   0.27102104   0.00550208
7424.00   0.28287113   0.00534411
7425.00   0.26808739   0.00565642
7426.00   0.27515620   0.00556873
7427.00   0.27415106   0.00563368
7428.00   0.27253982   0.00569933
7429.00   0.26863861   0.00586646
7430.00   0.27497405   0.00569961
7431.00   0.28688055   0.00567939
7432.00   0.28026330   0.00566190
7433.00   0.27743539   0.00545856
7434.00   0.28942320   0.00540861
7435.00   0.28832650   0.00551229
7436.00   0.28119767   0.00555518
7437.00   0.27103412   0.00557146
7438.00   0.27433592   0.00589242
7439.00   0.27595854   0.00622725
7440.00   0.27636319   0.00591785
7441.00   0.28005716   0.00567778
7442.00   0.29300153   0.00579301
7443.00   0.28319836   0.00558706
7444.00   0.27604052   0.00537454
7445.00   0.28235638   0.00533252
7446.00   0.29038486   0.00541115
7447.00   0.27861121   0.00605272
7448.00   0.26645342   0.00535181
7449.00   0.27129140   0.00527008
7450.00   0.27940536   0.00535412
7451.00   0.28828830   0.00537622
7452.00   0.27780956   0.00535701
7453.00   0.26352066   0.00562842
7454.00   0.27206963   0.00563141
7455.00   0.26535612   0.00557868
7456.00   0.24633959   0.00574996
7457.00   0.25914288   0.00584960
7458.00   0.30135521   0.00687491
7459.00   0.31756634   0.00691830
7460.00   0.24891618   0.00597863
7461.00   0.24422564   0.00591785
7462.00   0.26538563   0.00586819
7463.00   0.29218024   0.00566221
7464.00   0.29298115   0.00553478
7465.00   0.28096342   0.00560549
7466.00   0.27894461   0.00588845
7467.00   0.26713765   0.00598314
7468.00   0.26291597   0.00593392
7469.00   0.28247282   0.00586822
7470.00   0.28456962   0.00566141
7471.00   0.27273461   0.00565440
7472.00   0.27276480   0.00575831
7473.00   0.27828348   0.00585932
7474.00   0.27540821   0.00582803
7475.00   0.28893000   0.00581022
7476.00   0.28885663   0.00567197
7477.00   0.28417373   0.00564911
7478.00   0.27771470   0.00573596
7479.00   0.26852703   0.00593667
7480.00   0.27725154   0.00588798
7481.00   0.28933734   0.00585560
7482.00   0.28632343   0.00593476
7483.00   0.28130335   0.00602268
7484.00   0.29329678   0.00602242
7485.00   0.28190774   0.00589491
7486.00   0.28489178   0.00570915
7487.00   0.28461653   0.00564466
7488.00   0.27891320   0.00570285
7489.00   0.27659506   0.00581389
7490.00   0.28442734   0.00562948
7491.00   0.28614330   0.00552110
7492.00   0.28311819   0.00563732
7493.00   0.28924996   0.00562525
7494.00   0.28209645   0.00570778
7495.00   0.28206193   0.00577343
7496.00   0.28071666   0.00552874
7497.00   0.27097324   0.00563903
7498.00   0.27118015   0.00559039
7499.00   0.26650122   0.00547372
7500.00   0.27581128   0.00554989
7501.00   0.28601182   0.00555912
7502.00   0.28310376   0.00553323
7503.00   0.27192992   0.00546723
7504.00   0.28055346   0.00550666
7505.00   0.27648348   0.00547922
7506.00   0.27866870   0.00545725
7507.00   0.28596562   0.00561643
7508.00   0.27761438   0.00561010
7509.00   0.28252807   0.00545104
7510.00   0.27032548   0.00539195
7511.00   0.26682517   0.00539106
7512.00   0.26671508   0.00539819
7513.00   0.26443893   0.00540538
7514.00   0.27586049   0.00544441
7515.00   0.27540910   0.00562870
7516.00   0.27447584   0.00570227
7517.00   0.27909237   0.00557551
7518.00   0.28201643   0.00560572
7519.00   0.27869415   0.00558649
7520.00   0.27627599   0.00569523
7521.00   0.27722687   0.00570399
7522.00   0.27707472   0.00602535
7523.00   0.28188926   0.00659997
7524.00   0.27668852   0.00694062
7525.00   0.26583225   0.00690185
7526.00   0.26375306   0.00635674
7527.00   0.27677730   0.00590692
7528.00   0.26798871   0.00578290
7529.00   0.25922585   0.00581882
7530.00   0.27680171   0.00589443
7531.00   0.27054203   0.00586421
7532.00   0.26705664   0.00574907
7533.00   0.26979911   0.00570506
7534.00   0.27138314   0.00588187
7535.00   0.27601621   0.00558006
7536.00   0.26712358   0.00541944
7537.00   0.25808340   0.00538422
7538.00   0.25230667   0.00537509
7539.00   0.26568985   0.00550289
7540.00   0.27222985   0.00556862
7541.00   0.26787663   0.00552660
7542.00   0.26054484   0.00550979
7543.00   0.25866464   0.00553999
7544.00   0.27813736   0.00549023
7545.00   0.28204167   0.00544590
7546.00   0.27328885   0.00566552
7547.00   0.27102977   0.00595219
7548.00   0.26747629   0.00551070
7549.00   0.26020133   0.00533651
7550.00   0.26091397   0.00535133
7551.00   0.26514795   0.00537052
7552.00   0.27096960   0.00544142
7553.00   0.26692599   0.00593646
7554.00   0.27212539   0.00550195
7555.00   0.27140817   0.00554915
7556.00   0.26018029   0.00582085
7557.00   0.25670186   0.00557626
7558.00   0.25057617   0.00580301
7559.00   0.25810671   0.00587342
7560.00   0.26371604   0.00548847
7561.00   0.27401787   0.00553528
7562.00   0.27440682   0.00550422
7563.00   0.25949275   0.00537035
7564.00   0.26069078   0.00538871
7565.00   0.27578253   0.00558284
7566.00   0.26635540   0.00548120
7567.00   0.27002215   0.00561837
7568.00   0.26463962   0.00577150
7569.00   0.26354936   0.00554649
7570.00   0.27287823   0.00591908
7571.00   0.26717544   0.00646580
7572.00   0.26548538   0.00677541
7573.00   0.26356217   0.00645830
7574.00   0.25583351   0.00626039
7575.00   0.26309317   0.00612850
7576.00   0.25958449   0.00584111
7577.00   0.26655179   0.00559698
7578.00   0.25654095   0.00553446
7579.00   0.26849478   0.00539758
7580.00   0.25664750   0.00536243
7581.00   0.25457078   0.00532596
7582.00   0.25936770   0.00534668
7583.00   0.26167941   0.00541936
7584.00   0.26754111   0.00551707
7585.00   0.27172709   0.00567546
7586.00   0.25735503   0.00575544
7587.00   0.26244551   0.00569329
7588.00   0.26335394   0.00562864
7589.00   0.26329380   0.00556075
7590.00   0.26512355   0.00547424
7591.00   0.25127962   0.00568959
7592.00   0.26674658   0.00634778
7593.00   0.28872481   0.00740971
7594.00   0.29870570   0.00844339
7595.00   0.27444908   0.00892492
7596.00   0.28486672   0.00892907
7597.00   0.28856045   0.00967412
7598.00   0.28350800   0.01056946
7599.00   0.24585938   0.01119379
7600.00   0.26399219   0.01175579
7601.00   0.26749757   0.01147934
7602.00   0.24537906   0.01224931
7603.00   0.29970875   0.01313214
7604.00   0.26274478   0.01133410
7605.00   0.25295389   0.01072448
7606.00   0.28440005   0.01064987
7607.00   0.26393300   0.01029678
7608.00   0.27006108   0.01010829
7609.00   0.26766250   0.00960897
7610.00   0.26377046   0.00868431
7611.00   0.24953161   0.00833242
7612.00   0.25102299   0.00801640
7613.00   0.24890089   0.00705254
7614.00   0.25533509   0.00719633
7615.00   0.28900886   0.00777763
7616.00   0.25779855   0.00711207
7617.00   0.25017187   0.00561074
7618.00   0.26042929   0.00615068
7619.00   0.26147893   0.00644755
7620.00   0.25308657   0.00653451
7621.00   0.27135962   0.00692636
7622.00   0.29080957   0.00867655
7623.00   0.25717515   0.00880617
7624.00   0.24270105   0.00734927
7625.00   0.25353724   0.00714519
7626.00   0.26041406   0.00864486
7627.00   0.26731139   0.00834231
7628.00   0.27083123   0.00759808
7629.00   0.28022569   0.00833187
7630.00   0.27751416   0.00933434
7631.00   0.26981246   0.00857542
7632.00   0.25985193   0.00700367
7633.00   0.25126791   0.00674700
7634.00   0.25017339   0.00805132
7635.00   0.25754428   0.00813860
7636.00   0.24834482   0.00670097
7637.00   0.24885035   0.00627542
7638.00   0.26256043   0.00703943
7639.00   0.25492096   0.00766081
7640.00   0.24675772   0.00684491
7641.00   0.25430912   0.00609296
7642.00   0.25929356   0.00638538
7643.00   0.26332581   0.00729663
7644.00   0.25006914   0.00728266
7645.00   0.25006396   0.00636634
7646.00   0.25323579   0.00608793
7647.00   0.25799361   0.00644569
7648.00   0.25766340   0.00718271
7649.00   0.26114717   0.00708033
7650.00   0.27768633   0.00643307
7651.00   0.24796654   0.00604724
7652.00   0.26597014   0.00660390
7653.00   0.27439785   0.00697657
7654.00   0.27853531   0.00684056
7655.00   0.28053486   0.00654151
7656.00   0.27006111   0.00618985
7657.00   0.25425512   0.00605942
7658.00   0.24995063   0.00624688
7659.00   0.27249545   0.00669608
7660.00   0.26893216   0.00667848
7661.00   0.25074008   0.00596081
7662.00   0.26092625   0.00602653
7663.00   0.25944394   0.00634737
7664.00   0.24598494   0.00660314
7665.00   0.24442229   0.00704788
7666.00   0.27182499   0.00694391
7667.00   0.26468524   0.00610673
7668.00   0.25762582   0.00604248
7669.00   0.25757867   0.00614363
7670.00   0.26270923   0.00600012
7671.00   0.24576065   0.00577267
7672.00   0.25973845   0.00571490
7673.00   0.26759166   0.00570008
7674.00   0.25847656   0.00584259
7675.00   0.25476894   0.00597322
7676.00   0.24816841   0.00582967
7677.00   0.24791871   0.00568151
7678.00   0.25498822   0.00573172
7679.00   0.26477075   0.00591448
7680.00   0.25350562   0.00571904
7681.00   0.25661007   0.00582690
7682.00   0.25756264   0.00592159
7683.00   0.26268673   0.00582820
7684.00   0.26296949   0.00572204
7685.00   0.25728071   0.00570172
7686.00   0.25650197   0.00571655
7687.00   0.24636599   0.00577546
7688.00   0.24245203   0.00575684
7689.00   0.25163215   0.00575916
7690.00   0.26304737   0.00591228
7691.00   0.24996911   0.00605354
7692.00   0.24422047   0.00591859
7693.00   0.25465411   0.00578626
7694.00   0.24365479   0.00616296
7695.00   0.24409659   0.00604107
7696.00   0.24674523   0.00586538
7697.00   0.24702188   0.00584380
7698.00   0.24823222   0.00593957
7699.00   0.25324956   0.00600625
7700.00   0.25149566   0.00593103
7701.00   0.24886605   0.00592994
7702.00   0.25251102   0.00594456
7703.00   0.23992217   0.00578158
7704.00   0.22140335   0.00564707
7705.00   0.23630151   0.00587546
7706.00   0.25258052   0.00580744
7707.00   0.25339821   0.00574995
7708.00   0.24731526   0.00566198
7709.00   0.24055886   0.00577684
7710.00   0.24425599   0.00622112
7711.00   0.25203791   0.00692517
7712.00   0.24495518   0.00732621
7713.00   0.24384034   0.00731271
7714.00   0.25054809   0.00759586
7715.00   0.23301506   0.00805946
7716.00   0.23831540   0.00807289
7717.00   0.24456590   0.00791461
7718.00   0.23231399   0.00755717
7719.00   0.24026605   0.00717011
7720.00   0.23998511   0.00674609
7721.00   0.23988307   0.00642256
7722.00   0.23973271   0.00622954
7723.00   0.24833308   0.00620070
7724.00   0.23121655   0.00622713
7725.00   0.23964137   0.00638622
7726.00   0.24261543   0.00632865
7727.00   0.24640985   0.00627050
7728.00   0.22897820   0.00618908
7729.00   0.22594748   0.00604522
7730.00   0.23544049   0.00590994
7731.00   0.23347107   0.00595635
7732.00   0.23956449   0.00627874
7733.00   0.24171868   0.00594183
7734.00   0.25629205   0.00608395
7735.00   0.25941628   0.00619759
7736.00   0.24588934   0.00600097
7737.00   0.23926458   0.00597522
7738.00   0.21982166   0.00600940
7739.00   0.22943875   0.00595667
7740.00   0.24626543   0.00598186
7741.00   0.24538597   0.00606929
7742.00   0.24260612   0.00600972
7743.00   0.25768137   0.00609741
7744.00   0.24430484   0.00594818
7745.00   0.23733714   0.00593135
7746.00   0.23031574   0.00595347
7747.00   0.23938325   0.00627667
7748.00   0.23406012   0.00725465
7749.00   0.22473422   0.00809157
7750.00   0.21990821   0.00860000
7751.00   0.22166663   0.00860738
7752.00   0.22658828   0.00823516
7753.00   0.24117318   0.00781956
7754.00   0.24762753   0.00731055
7755.00   0.25257576   0.00685507
7756.00   0.23613167   0.00689082
7757.00   0.24011987   0.00654457
7758.00   0.24376449   0.00686494
7759.00   0.23394473   0.00715042
7760.00   0.23080251   0.00709243
7761.00   0.23352760   0.00709400
7762.00   0.24873908   0.00727790
7763.00   0.24953786   0.00707921
7764.00   0.23690897   0.00653994
7765.00   0.23883891   0.00630613
7766.00   0.24487323   0.00624212
7767.00   0.25064528   0.00617683
7768.00   0.22584800   0.00608830
7769.00   0.22609164   0.00612971
7770.00   0.24603964   0.00629344
7771.00   0.24017924   0.00656251
7772.00   0.22628713   0.00720202
7773.00   0.23179175   0.00691769
7774.00   0.23863085   0.00658134
7775.00   0.23445031   0.00659598
7776.00   0.22181451   0.00650793
7777.00   0.22877035   0.00653453
7778.00   0.23617426   0.00657935
7779.00   0.23361938   0.00706944
7780.00   0.24662989   0.00699688
7781.00   0.24560264   0.00684700
7782.00   0.22930858   0.00663550
7783.00   0.24051620   0.00670704
7784.00   0.25771946   0.00689355
7785.00   0.25013995   0.00656283
7786.00   0.23892844   0.00639536
7787.00   0.23637363   0.00655200
7788.00   0.23032090   0.00649459
7789.00   0.23097864   0.00649136
7790.00   0.24368402   0.00689680
7791.00   0.23305504   0.00719029
7792.00   0.23241821   0.00807874
7793.00   0.22857377   0.00848941
7794.00   0.22160801   0.00854219
7795.00   0.23665112   0.00821239
7796.00   0.23155057   0.00779842
7797.00   0.24182501   0.00750001
7798.00   0.24969925   0.00717749
7799.00   0.23504803   0.00674465
7800.00   0.23561749   0.00686908
7801.00   0.24306887   0.00690000
7802.00   0.24262041   0.00702406
7803.00   0.23425549   0.00678135
7804.00   0.23940337   0.00651943
7805.00   0.23025754   0.00683026
7806.00   0.20617896   0.00752307
7807.00   0.21653236   0.00732676
7808.00   0.22034025   0.00746192
7809.00   0.21445629   0.00764472
7810.00   0.22900979   0.00753183
7811.00   0.24304333   0.00713542
7812.00   0.24245773   0.00699558
7813.00   0.22339854   0.00677735
7814.00   0.22991602   0.00675101
7815.00   0.22006740   0.00692599
7816.00   0.22161415   0.00670180
7817.00   0.23634414   0.00670485
7818.00   0.22054061   0.00709077
7819.00   0.22174171   0.00797359
7820.00   0.24424115   0.00887459
7821.00   0.23775686   0.00917369
7822.00   0.23214497   0.00895036
7823.00   0.23496410   0.00848329
7824.00   0.22868320   0.00790764
7825.00   0.22809923   0.00745932
7826.00   0.23988456   0.00721483
7827.00   0.22461767   0.00709809
7828.00   0.21302441   0.00714497
7829.00   0.22385012   0.00698611
#7830.00   0.25177479   0.00694415
#7831.00   0.25853974   0.00696805
#7832.00   0.25453934   0.00689401
#7833.00   0.25986847   0.00720417
#7834.00   0.25418517   0.00727142
#7835.00   0.25280607   0.00711688
#7836.00   0.25142521   0.00784018
#7837.00   0.26108754   0.00740496
#7838.00   0.30806920   0.00793814
#7839.00   0.31084651   0.01097235
#7840.00   0.25598064   0.01011071
#7841.00   0.29610848   0.01002044
#7842.00   0.29702595   0.01060067
#7843.00   0.46400744   0.01345885
#7844.00   0.44689262   0.01580168
#7845.00   0.33746284   0.01366236
#7846.00   0.43316144   0.01919910
#7847.00   0.25361443   0.02483783
#7848.00   0.39479357   0.04122206
#7849.00   0.73274803   0.08571571
#7850.00   0.31721476   0.12748003
