# File created by shivutils (I.Shivvers)
# wl(A)   flm    er(optional)
3460.00   0.15574801   0.09580863
3462.00   0.25562397   0.09677720
3464.00   0.42056373   0.09842071
3466.00   0.26986033   0.09612859
3468.00   0.29099190   0.10581361
3470.00   0.28016618   0.10481107
3472.00   0.13871142   0.10357255
3474.00   0.23359200   0.09941258
3476.00   0.16803646   0.09877191
3478.00   0.13044098   0.10397425
3480.00   0.15329540   0.10723392
3482.00   -0.04900623   0.10648702
3484.00   0.14226685   0.10144178
3486.00   0.12881327   0.10521546
3488.00   -0.06676318   0.10432347
3490.00   0.17986341   0.10688071
3492.00   0.21648978   0.10231543
3494.00   0.47436994   0.10871524
3496.00   0.38359079   0.10844633
3498.00   0.20452753   0.10340790
3500.00   0.24838389   0.10544653
3502.00   0.08699711   0.10396211
3504.00   0.30831578   0.10438628
3506.00   0.37448892   0.10462473
3508.00   0.28769839   0.10133607
3510.00   0.17039120   0.10002632
3512.00   0.06814796   0.11489169
3514.00   0.49730408   0.10241573
3516.00   0.29451245   0.10414995
3518.00   0.32036620   0.10218474
3520.00   0.29373211   0.10197448
3522.00   0.40980154   0.10304728
3524.00   0.12483649   0.09832083
3526.00   0.24517734   0.10006987
3528.00   0.16694970   0.10160478
3530.00   0.25309095   0.10265714
3532.00   0.16383965   0.10681447
3534.00   0.20744602   0.10062936
3536.00   0.18256873   0.10072337
3538.00   0.22436588   0.10104277
3540.00   0.21492030   0.10376987
3542.00   0.48769715   0.10562090
3544.00   0.29971093   0.10623068
3546.00   0.38753870   0.10364243
3548.00   0.26407880   0.10382681
3550.00   0.28426766   0.10322288
3552.00   0.15246333   0.10173882
3554.00   0.14100198   0.10132835
3556.00   0.20763877   0.10171628
3558.00   0.13925239   0.10083896
3560.00   0.38064310   0.09871798
3562.00   0.03357841   0.09751119
3564.00   0.10872509   0.09620140
3566.00   0.26219842   0.09245554
3568.00   0.27648020   0.09341320
3570.00   0.37923428   0.09284589
3572.00   0.22747229   0.09383390
3574.00   0.08914851   0.09387501
3576.00   0.38674223   0.09346016
3578.00   0.28260428   0.09331042
3580.00   0.32078862   0.09348879
3582.00   0.16108282   0.09067249
3584.00   0.20047300   0.08726669
3586.00   0.21236177   0.08575144
3588.00   0.29969636   0.08830339
3590.00   0.10415095   0.09017950
3592.00   0.26252332   0.09144347
3594.00   0.18099660   0.08747333
3596.00   0.35467905   0.08944090
3598.00   0.20666955   0.08846047
3600.00   0.29334489   0.08937765
3602.00   0.28119966   0.08758483
3604.00   0.26093370   0.08334799
3606.00   0.12249150   0.08600742
3608.00   0.28305021   0.08201291
3610.00   0.22444040   0.08164570
3612.00   0.15439008   0.08255211
3614.00   0.26804230   0.08444806
3616.00   0.27911451   0.08347046
3618.00   0.28895801   0.08034381
3620.00   0.21160176   0.08015586
3622.00   0.13656585   0.08056612
3624.00   0.20308955   0.08069270
3626.00   0.24595463   0.08152942
3628.00   0.07601304   0.08197974
3630.00   0.12619059   0.07864807
3632.00   0.25075158   0.07967103
3634.00   0.22381808   0.07840413
3636.00   0.27044001   0.07905453
3638.00   0.45641378   0.08069988
3640.00   0.21514374   0.07914997
3642.00   0.14165692   0.08075714
3644.00   0.19646174   0.08021119
3646.00   0.10141974   0.08057440
3648.00   0.21248777   0.09290663
3650.00   0.12715739   0.09997738
3652.00   0.11225123   0.09822821
3654.00   0.08458223   0.09009869
3656.00   0.17201760   0.08766836
3658.00   0.17260487   0.08169398
3660.00   0.25155666   0.07981742
3662.00   0.32960561   0.08360198
3664.00   0.33604831   0.08310977
3666.00   0.08559203   0.07656795
3668.00   0.23333009   0.07320291
3670.00   0.24308527   0.07275291
3672.00   0.28488669   0.07411332
3674.00   0.26915160   0.07342331
3676.00   0.19411209   0.07074980
3678.00   0.34437576   0.06979698
3680.00   0.32715729   0.06872662
3682.00   0.15693069   0.06770204
3684.00   0.18288906   0.06855980
3686.00   0.21567935   0.06671506
3688.00   0.25661337   0.06721493
3690.00   0.22763839   0.06757030
3692.00   0.22612913   0.06802958
3694.00   0.38244671   0.06751892
3696.00   0.24804835   0.06750590
3698.00   0.23896833   0.06808517
3700.00   0.13758944   0.06851612
3702.00   0.21352290   0.06722446
3704.00   0.24786025   0.06823964
3706.00   0.29671982   0.06591686
3708.00   0.26551792   0.06501599
3710.00   0.20442174   0.06453440
3712.00   0.14235197   0.06486207
3714.00   0.23641437   0.06524808
3716.00   0.40089881   0.06619772
3718.00   0.34227222   0.06457686
3720.00   0.11531226   0.06070268
3722.00   0.36001387   0.06211589
3724.00   0.30506486   0.06289726
3726.00   0.33450449   0.06400773
3728.00   0.18453658   0.06368504
3730.00   0.28030753   0.06377742
3732.00   0.17959006   0.06134045
3734.00   0.23120035   0.05784361
3736.00   0.25406191   0.06234783
3738.00   0.24612643   0.06494696
3740.00   0.24882893   0.06049478
3742.00   0.30907118   0.06271617
3744.00   0.27858132   0.05949019
3746.00   0.26445073   0.05911525
3748.00   0.23740818   0.06224791
3750.00   0.23291734   0.05706907
3752.00   0.36000749   0.05829461
3754.00   0.15097123   0.06058217
3756.00   0.27692902   0.05975311
3758.00   0.22782730   0.05909592
3760.00   0.29806954   0.05873853
3762.00   0.38490689   0.05955871
3764.00   0.32881486   0.06034192
3766.00   0.37046784   0.05803937
3768.00   0.31572556   0.05704990
3770.00   0.37942100   0.05865018
3772.00   0.36802155   0.06211983
3774.00   0.41785619   0.06346583
3776.00   0.39457628   0.06234501
3778.00   0.40356478   0.06127604
3780.00   0.36624485   0.05957066
3782.00   0.34062856   0.05904899
3784.00   0.35681233   0.05927029
3786.00   0.36261570   0.05871870
3788.00   0.41163436   0.05821547
3790.00   0.37075776   0.05749524
3792.00   0.34554613   0.05596826
3794.00   0.35334346   0.05539521
3796.00   0.31707016   0.05946130
3798.00   0.33821762   0.05432223
3800.00   0.36407110   0.05702603
3802.00   0.35231599   0.05709069
3804.00   0.41294080   0.05813338
3806.00   0.42710048   0.05667565
3808.00   0.43460092   0.05616690
3810.00   0.34387383   0.05612259
3812.00   0.34852007   0.05582098
3814.00   0.40963501   0.05499530
3816.00   0.40805125   0.05735665
3818.00   0.33023864   0.05698034
3820.00   0.33066079   0.05662443
3822.00   0.42173678   0.05402535
3824.00   0.31549290   0.05721905
3826.00   0.32408386   0.05595490
3828.00   0.38666454   0.05725890
3830.00   0.46564937   0.05815624
3832.00   0.42760727   0.05735809
3834.00   0.30073005   0.05561834
3836.00   0.25807872   0.05482301
3838.00   0.41749763   0.05450785
3840.00   0.31847689   0.05324461
3842.00   0.35150662   0.05409566
3844.00   0.29993144   0.05546593
3846.00   0.28288370   0.05114865
3848.00   0.34884176   0.05097020
3850.00   0.41115752   0.05582573
3852.00   0.36909452   0.05695707
3854.00   0.35196120   0.05628979
3856.00   0.15511316   0.05513439
3858.00   0.23460579   0.05427739
3860.00   0.27363193   0.05294299
3862.00   0.20766900   0.04922768
3864.00   0.20888366   0.05033335
3866.00   0.26774430   0.05037288
3868.00   0.20878625   0.04842885
3870.00   0.21848857   0.05149436
3872.00   0.20382971   0.05062548
3874.00   0.21120261   0.05182119
3876.00   0.22115497   0.04816131
3878.00   0.16418402   0.04605392
3880.00   0.25283945   0.04470411
3882.00   0.27114654   0.04579296
3884.00   0.25123712   0.04446132
3886.00   0.25093099   0.04503903
3888.00   0.21054783   0.04521791
3890.00   0.16432303   0.04503530
3892.00   0.20097715   0.04699609
3894.00   0.21165653   0.05163335
3896.00   0.24891494   0.04779915
3898.00   0.16397925   0.04734720
3900.00   0.05655689   0.04717478
3902.00   0.20110847   0.04847427
3904.00   0.25351313   0.04896348
3906.00   0.10988519   0.05416261
3908.00   0.22038624   0.05161523
3910.00   0.22310813   0.05297415
3912.00   0.25854421   0.05465340
3914.00   0.17944975   0.05284798
3916.00   0.19701040   0.05125113
3918.00   0.22356933   0.04792610
3920.00   0.22354740   0.05104196
3922.00   0.26504591   0.05046396
3924.00   0.16512626   0.04867156
3926.00   0.21277210   0.04826021
3928.00   0.23503268   0.04626188
3930.00   0.25400800   0.04528285
3932.00   0.19876848   0.04409014
3934.00   0.17782302   0.04312520
3936.00   0.27334124   0.04380363
3938.00   0.32084531   0.04459582
3940.00   0.24233459   0.04606293
3942.00   0.30302835   0.04842411
3944.00   0.27595088   0.05022939
3946.00   0.27229738   0.05035233
3948.00   0.32455167   0.05044426
3950.00   0.36843196   0.04758533
3952.00   0.32898551   0.04698161
3954.00   0.31903270   0.04616921
3956.00   0.29018086   0.04668150
3958.00   0.34673861   0.04758713
3960.00   0.30985495   0.05135011
3962.00   0.51115400   0.05112081
3964.00   0.54975528   0.04952348
3966.00   0.43367073   0.04727478
3968.00   0.39804772   0.04543539
3970.00   0.45214793   0.04661262
3972.00   0.46068433   0.04788037
3974.00   0.47659013   0.04907171
3976.00   0.46375975   0.04932291
3978.00   0.42828178   0.04978433
3980.00   0.48883355   0.04982859
3982.00   0.42555904   0.04544919
3984.00   0.48346454   0.04562108
3986.00   0.48283541   0.04577709
3988.00   0.47981831   0.04746082
3990.00   0.48006457   0.04813310
3992.00   0.53955179   0.04833986
3994.00   0.52192158   0.05220281
3996.00   0.52485633   0.05298780
3998.00   0.40929654   0.04948973
4000.00   0.46669117   0.04834955
4002.00   0.47830415   0.04873192
4004.00   0.48952651   0.05222166
4006.00   0.56073010   0.04784876
4008.00   0.54411334   0.05190982
4010.00   0.33090809   0.04825972
4012.00   0.42334273   0.04698608
4014.00   0.39620912   0.04612586
4016.00   0.47202864   0.04591349
4018.00   0.41010183   0.05033521
4020.00   0.46678987   0.04989389
4022.00   0.48921183   0.05127938
4024.00   0.50652301   0.05514092
4026.00   0.57060772   0.05464278
4028.00   0.52009660   0.05342947
4030.00   0.44144452   0.05257092
4032.00   0.50912386   0.05217727
4034.00   0.54624385   0.05204719
4036.00   0.51940674   0.04861530
4038.00   0.53420252   0.04927857
4040.00   0.55714869   0.04977288
4042.00   0.48535782   0.05311787
4044.00   0.53595978   0.06205789
4046.00   0.62727088   0.07430286
4048.00   0.58217949   0.07281415
4050.00   0.64441562   0.06064950
4052.00   0.57146108   0.05467646
4054.00   0.50586438   0.05354393
4056.00   0.53867745   0.05262149
4058.00   0.49699545   0.05158374
4060.00   0.49603161   0.05115140
4062.00   0.51033723   0.04749066
4064.00   0.51265341   0.05034387
4066.00   0.50704414   0.05035943
4068.00   0.46333987   0.05055257
4070.00   0.42433155   0.05018095
4072.00   0.48716667   0.05005247
4074.00   0.33776245   0.04971613
4076.00   0.45369256   0.05163384
4078.00   0.44891962   0.05323491
4080.00   0.51115078   0.05234771
4082.00   0.42891634   0.05119681
4084.00   0.44077069   0.05035339
4086.00   0.45305842   0.05086542
4088.00   0.49631339   0.05075349
4090.00   0.58501703   0.05007352
4092.00   0.51537389   0.04883756
4094.00   0.47034821   0.04872474
4096.00   0.48414475   0.04805844
4098.00   0.37097234   0.04768790
4100.00   0.46555406   0.04750346
4102.00   0.52721488   0.04727996
4104.00   0.51540649   0.04731990
4106.00   0.48391363   0.04765264
4108.00   0.43947372   0.04726479
4110.00   0.50223452   0.04796026
4112.00   0.42472881   0.04786636
4114.00   0.47723812   0.04791688
4116.00   0.46652088   0.04775831
4118.00   0.51422578   0.04749591
4120.00   0.48189193   0.04782897
4122.00   0.46266314   0.04700167
4124.00   0.50488162   0.04753853
4126.00   0.45150167   0.04683663
4128.00   0.45211008   0.04660995
4130.00   0.53041089   0.04708016
4132.00   0.50627732   0.04695293
4134.00   0.47255349   0.04734832
4136.00   0.54839635   0.04750203
4138.00   0.51614380   0.04774374
4140.00   0.49302980   0.04815136
4142.00   0.45859614   0.04667725
4144.00   0.41083729   0.04542099
4146.00   0.48716822   0.04538234
4148.00   0.33004060   0.04402182
4150.00   0.41306108   0.04529827
4152.00   0.44526032   0.04530354
4154.00   0.39307097   0.04468318
4156.00   0.43387830   0.04445101
4158.00   0.42026019   0.04485491
4160.00   0.42537114   0.04508657
4162.00   0.39365822   0.04585641
4164.00   0.38587707   0.04709866
4166.00   0.44165835   0.04714742
4168.00   0.42366439   0.04598614
4170.00   0.42769909   0.04478472
4172.00   0.42878878   0.04407992
4174.00   0.40329784   0.04393905
4176.00   0.42141622   0.04415744
4178.00   0.41625839   0.04458375
4180.00   0.45398462   0.04473628
4182.00   0.44866604   0.04424949
4184.00   0.48189354   0.04361492
4186.00   0.47791290   0.04391037
4188.00   0.43979648   0.04395265
4190.00   0.50550765   0.04408699
4192.00   0.49272653   0.04448882
4194.00   0.36317515   0.04365428
4196.00   0.38903919   0.04304716
4198.00   0.41957307   0.04264721
4200.00   0.49005714   0.04273114
4202.00   0.45563069   0.04274074
4204.00   0.39332086   0.04261620
4206.00   0.43048692   0.04289234
4208.00   0.37244630   0.04328414
4210.00   0.38575444   0.04338109
4212.00   0.39360252   0.04331077
4214.00   0.37726021   0.04328391
4216.00   0.40027785   0.04325104
4218.00   0.37953791   0.04306357
4220.00   0.35104218   0.04248260
4222.00   0.32962698   0.04199089
4224.00   0.36492163   0.04159227
4226.00   0.36690542   0.04052396
4228.00   0.35888046   0.04087727
4230.00   0.40863386   0.04197827
4232.00   0.31861457   0.04225367
4234.00   0.37428629   0.04231070
4236.00   0.39241976   0.04264802
4238.00   0.36960122   0.04208056
4240.00   0.37485567   0.04200491
4242.00   0.35834032   0.04199114
4244.00   0.43582153   0.04323612
4246.00   0.33372995   0.04441252
4248.00   0.35626736   0.04398672
4250.00   0.36614558   0.04235390
4252.00   0.34972820   0.04104043
4254.00   0.29705936   0.04079230
4256.00   0.34376577   0.04126626
4258.00   0.37249786   0.04130420
4260.00   0.30620092   0.04066421
4262.00   0.26162988   0.04059457
4264.00   0.37438795   0.04138768
4266.00   0.30059052   0.04078519
4268.00   0.29642507   0.04057379
4270.00   0.34122223   0.04011142
4272.00   0.32312030   0.03998025
4274.00   0.26820433   0.04007031
4276.00   0.34043628   0.04061254
4278.00   0.25286144   0.03986794
4280.00   0.26995221   0.03959784
4282.00   0.33254355   0.04029797
4284.00   0.37039056   0.04040359
4286.00   0.26298636   0.03994740
4288.00   0.25665173   0.03944968
4290.00   0.26357365   0.03943552
4292.00   0.35178119   0.03998339
4294.00   0.37623033   0.04046991
4296.00   0.35207105   0.03985954
4298.00   0.33250299   0.03937229
4300.00   0.31463510   0.03891867
4302.00   0.34439135   0.03845803
4304.00   0.34666362   0.03834773
4306.00   0.32499149   0.03850975
4308.00   0.30435389   0.03846534
4310.00   0.32788959   0.03887909
4312.00   0.33327025   0.04076442
4314.00   0.38619652   0.04193037
4316.00   0.30127689   0.04224391
4318.00   0.35168970   0.04286974
4320.00   0.41111654   0.04333897
4322.00   0.35171604   0.04188267
4324.00   0.36967650   0.04070247
4326.00   0.37280175   0.04076285
4328.00   0.39965981   0.04104781
4330.00   0.48118195   0.04147474
4332.00   0.34405744   0.04157010
4334.00   0.39532191   0.04174212
4336.00   0.38706020   0.04144645
4338.00   0.42923549   0.04126173
4340.00   0.43637347   0.04091984
4342.00   0.39497808   0.04117663
4344.00   0.44921499   0.04201391
4346.00   0.41847649   0.04290275
4348.00   0.41231191   0.04340304
4350.00   0.38921979   0.04272052
4352.00   0.39523908   0.04167961
4354.00   0.43131092   0.04423760
4356.00   0.36716005   0.06130742
4358.00   0.40420255   0.07126133
4360.00   0.42917296   0.06650516
4362.00   0.45660052   0.05463655
4364.00   0.42520785   0.04634693
4366.00   0.43472692   0.04354523
4368.00   0.41266868   0.04288858
4370.00   0.33913392   0.04240637
4372.00   0.36999330   0.04355337
4374.00   0.43461064   0.04357737
4376.00   0.42787310   0.04302282
4378.00   0.41829881   0.04249022
4380.00   0.37148491   0.04135533
4382.00   0.43551996   0.04113408
4384.00   0.46976528   0.04122940
4386.00   0.39516348   0.04060430
4388.00   0.45871750   0.04107598
4390.00   0.42505100   0.04106100
4392.00   0.55855143   0.04126217
4394.00   0.49631226   0.04111684
4396.00   0.48263741   0.04120829
4398.00   0.47881922   0.04182819
4400.00   0.42513958   0.04186580
4402.00   0.45029578   0.04193478
4404.00   0.43035555   0.04125625
4406.00   0.45110402   0.04140801
4408.00   0.45952207   0.04151945
4410.00   0.43426153   0.04203227
4412.00   0.51902401   0.04287795
4414.00   0.48303020   0.04262709
4416.00   0.46973419   0.04267535
4418.00   0.46715409   0.04302387
4420.00   0.46364474   0.04272245
4422.00   0.43696719   0.04210040
4424.00   0.40521431   0.04168529
4426.00   0.44912156   0.04161459
4428.00   0.41939074   0.04161850
4430.00   0.40606087   0.04155895
4432.00   0.41077340   0.04143419
4434.00   0.39309654   0.04129693
4436.00   0.44409847   0.04109229
4438.00   0.42670596   0.04092771
4440.00   0.46631768   0.04076342
4442.00   0.34394068   0.04047572
4444.00   0.39485431   0.04086303
4446.00   0.38958463   0.04109614
4448.00   0.41133621   0.04111199
4450.00   0.49664935   0.04164916
4452.00   0.42589340   0.04114890
4454.00   0.38452992   0.04069096
4456.00   0.41540939   0.04081067
4458.00   0.41178450   0.04053208
4460.00   0.41281083   0.04018886
4462.00   0.43423268   0.04063395
4464.00   0.38588780   0.04049217
4466.00   0.37878323   0.04101755
4468.00   0.43260044   0.04092745
4470.00   0.45171750   0.04111054
4472.00   0.41644925   0.04091444
4474.00   0.41329142   0.04144579
4476.00   0.37422395   0.04136543
4478.00   0.39535850   0.04083015
4480.00   0.34973180   0.04048400
4482.00   0.38588640   0.04048541
4484.00   0.34673619   0.04055693
4486.00   0.35670131   0.04061165
4488.00   0.36366346   0.04052984
4490.00   0.33479464   0.04049330
4492.00   0.38696066   0.04099822
4494.00   0.37847006   0.04093060
4496.00   0.37580228   0.04105537
4498.00   0.36731681   0.04095950
4500.00   0.44016042   0.04107730
4502.00   0.32892585   0.04078815
4504.00   0.40520006   0.04107546
4506.00   0.37846652   0.04104992
4508.00   0.34100521   0.04067406
4510.00   0.37563455   0.04093165
4512.00   0.35162434   0.04018783
4514.00   0.39699441   0.04018018
4516.00   0.37372604   0.04002505
4518.00   0.42155910   0.03953446
4520.00   0.32640210   0.03996615
4522.00   0.40772921   0.03996166
4524.00   0.30575824   0.03928839
4526.00   0.33969724   0.03928335
4528.00   0.35609567   0.03932907
4530.00   0.34461936   0.03943890
4532.00   0.38866103   0.03970775
4534.00   0.41310033   0.04006702
4536.00   0.31524718   0.03934271
4538.00   0.38492581   0.04004830
4540.00   0.34843004   0.03993347
4542.00   0.34157643   0.04012890
4544.00   0.41428795   0.04023046
4546.00   0.40630251   0.04007193
4548.00   0.37671617   0.03934538
4550.00   0.39275077   0.03964989
4552.00   0.35293192   0.03923056
4554.00   0.40689027   0.03976317
4556.00   0.44806904   0.04015683
4558.00   0.36525166   0.04006814
4560.00   0.41624618   0.04035567
4562.00   0.49795938   0.04057036
4564.00   0.45619065   0.04047823
4566.00   0.43597516   0.04037407
4568.00   0.43264472   0.04010849
4570.00   0.48540795   0.04035243
4572.00   0.49868801   0.04046158
4574.00   0.48487410   0.04048525
4576.00   0.54239541   0.04058565
4578.00   0.52065200   0.04026735
4580.00   0.55438244   0.04016407
4582.00   0.48710087   0.03943787
4584.00   0.56425422   0.03968066
4586.00   0.52742523   0.03973122
4588.00   0.45432049   0.03944266
4590.00   0.47678927   0.03958387
4592.00   0.59960282   0.03975583
4594.00   0.54227501   0.03974330
4596.00   0.54826611   0.03986618
4598.00   0.59404063   0.03972206
4600.00   0.52485901   0.04009300
4602.00   0.59119767   0.03988065
4604.00   0.61625457   0.03964473
4606.00   0.57517582   0.03960571
4608.00   0.55582184   0.03952544
4610.00   0.51460212   0.03981111
4612.00   0.58667505   0.03986374
4614.00   0.53141999   0.03950017
4616.00   0.58703268   0.03997709
4618.00   0.55240673   0.03971319
4620.00   0.60154778   0.03973990
4622.00   0.58359927   0.03993647
4624.00   0.55797303   0.03959499
4626.00   0.57086837   0.03976466
4628.00   0.57522374   0.03990485
4630.00   0.57486880   0.03998000
4632.00   0.62446141   0.04026422
4634.00   0.62600011   0.03985726
4636.00   0.58559400   0.03964042
4638.00   0.55894083   0.03959004
4640.00   0.62865978   0.03970997
4642.00   0.59270078   0.03975932
4644.00   0.53625351   0.03905426
4646.00   0.61028457   0.03942394
4648.00   0.57796758   0.03937656
4650.00   0.56418163   0.03952428
4652.00   0.62694746   0.03963013
4654.00   0.62416899   0.03981575
4656.00   0.53026152   0.03972360
4658.00   0.68055063   0.04053022
4660.00   0.62216991   0.04037159
4662.00   0.60328901   0.04014636
4664.00   0.64372849   0.04042518
4666.00   0.71347457   0.04103601
4668.00   0.52965850   0.04064795
4670.00   0.59885693   0.04100046
4672.00   0.69025999   0.04107677
4674.00   0.58312649   0.04067434
4676.00   0.57084072   0.04038620
4678.00   0.62398481   0.04022711
4680.00   0.68145806   0.04009456
4682.00   0.66552311   0.04033648
4684.00   0.62006217   0.03989569
4686.00   0.62186307   0.03993866
4688.00   0.62614083   0.03936791
4690.00   0.56398475   0.03945847
4692.00   0.59167516   0.03937645
4694.00   0.60078245   0.03918168
4696.00   0.58326638   0.03888488
4698.00   0.53245759   0.03875744
4700.00   0.61200482   0.03879822
4702.00   0.55467755   0.03824158
4704.00   0.55476195   0.03834142
4706.00   0.47471410   0.03834090
4708.00   0.60269338   0.03885496
4710.00   0.58194059   0.03895974
4712.00   0.55068421   0.03874458
4714.00   0.54523331   0.03875724
4716.00   0.50001484   0.03898331
4718.00   0.54015601   0.03887353
4720.00   0.55419469   0.03868123
4722.00   0.50743765   0.03840720
4724.00   0.51853240   0.03816248
4726.00   0.52228540   0.03826653
4728.00   0.53431660   0.03870365
4730.00   0.50990611   0.03902358
4732.00   0.49706903   0.03912752
4734.00   0.48938397   0.03938066
4736.00   0.57812327   0.03938732
4738.00   0.56255090   0.03961706
4740.00   0.42745274   0.04018448
4742.00   0.56528878   0.04062038
4744.00   0.48411006   0.03991807
4746.00   0.48013651   0.03898111
4748.00   0.49985674   0.03833034
4750.00   0.55928665   0.03798362
4752.00   0.44737011   0.03799502
4754.00   0.42260846   0.03749716
4756.00   0.46915036   0.03718209
4758.00   0.48470467   0.03678146
4760.00   0.47944000   0.03654529
4762.00   0.42807472   0.03608140
4764.00   0.46951446   0.03590665
4766.00   0.42463565   0.03584440
4768.00   0.44890162   0.03597327
4770.00   0.49414757   0.03624750
4772.00   0.43361184   0.03609686
4774.00   0.45500317   0.03609557
4776.00   0.41327769   0.03648669
4778.00   0.40173754   0.03680633
4780.00   0.42693067   0.03683780
4782.00   0.41908327   0.03651237
4784.00   0.40508652   0.03609980
4786.00   0.38337344   0.03577761
4788.00   0.40921792   0.03570452
4790.00   0.42781627   0.03568802
4792.00   0.39175022   0.03550186
4794.00   0.45689073   0.03584833
4796.00   0.37204796   0.03556970
4798.00   0.44756928   0.03565978
4800.00   0.39108351   0.03541391
4802.00   0.44818717   0.03592408
4804.00   0.43181393   0.03550743
4806.00   0.39435184   0.03548771
4808.00   0.38151798   0.03544840
4810.00   0.42396593   0.03558904
4812.00   0.39739668   0.03517327
4814.00   0.37051404   0.03527338
4816.00   0.34588417   0.03503158
4818.00   0.37048542   0.03523596
4820.00   0.36764428   0.03535865
4822.00   0.36259055   0.03505774
4824.00   0.32899460   0.03510402
4826.00   0.38912913   0.03495572
4828.00   0.38424176   0.03542651
4830.00   0.41569543   0.03579652
4832.00   0.38466990   0.03563675
4834.00   0.38905409   0.03533473
4836.00   0.42916539   0.03609105
4838.00   0.45798668   0.03627138
4840.00   0.46697393   0.03618694
4842.00   0.41707245   0.03589856
4844.00   0.48182395   0.03640636
4846.00   0.43589833   0.03612810
4848.00   0.50796211   0.03650425
4850.00   0.49720684   0.03609267
4852.00   0.46580833   0.03614456
4854.00   0.52659637   0.03663951
4856.00   0.51837939   0.03658182
4858.00   0.51075524   0.03629458
4860.00   0.63257343   0.03622610
4862.00   0.55253094   0.03637930
4864.00   0.54981095   0.03622433
4866.00   0.55516165   0.03638442
4868.00   0.57219851   0.03661457
4870.00   0.60760039   0.03660591
4872.00   0.59726983   0.03662638
4874.00   0.55304915   0.03626151
4876.00   0.54442763   0.03662521
4878.00   0.50549614   0.03674987
4880.00   0.58838427   0.03671569
4882.00   0.55194008   0.03690260
4884.00   0.56045258   0.03646558
4886.00   0.55690086   0.03598122
4888.00   0.52063513   0.03588395
4890.00   0.53219122   0.03570377
4892.00   0.55157340   0.03622902
4894.00   0.52916753   0.03626502
4896.00   0.51960480   0.03625321
4898.00   0.51224500   0.03629019
4900.00   0.49737689   0.03561420
4902.00   0.53518820   0.03578869
4904.00   0.60568357   0.03568809
4906.00   0.52252704   0.03595873
4908.00   0.56868565   0.03605160
4910.00   0.59991455   0.03605680
4912.00   0.61660010   0.03636164
4914.00   0.52770042   0.03560828
4916.00   0.63288087   0.03599166
4918.00   0.68176901   0.03656777
4920.00   0.81799996   0.03724761
4922.00   0.86883092   0.03720304
4924.00   0.76373279   0.03658265
4926.00   0.74617785   0.03638098
4928.00   0.65179771   0.03589738
4930.00   0.60311145   0.03543709
4932.00   0.60886085   0.03543304
4934.00   0.60555935   0.03551672
4936.00   0.63809830   0.03595074
4938.00   0.69800061   0.03580834
4940.00   0.61505562   0.03577688
4942.00   0.63349319   0.03615443
4944.00   0.62722534   0.03616581
4946.00   0.63566172   0.03602872
4948.00   0.64554685   0.03596573
4950.00   0.63352174   0.03609502
4952.00   0.62377286   0.03624995
4954.00   0.57849938   0.03605805
4956.00   0.62412953   0.03612224
4958.00   0.59913415   0.03614825
4960.00   0.60977912   0.03635577
4962.00   0.60673016   0.03631318
4964.00   0.59062988   0.03618694
4966.00   0.56169659   0.03612808
4968.00   0.59559578   0.03624000
4970.00   0.53957593   0.03616976
4972.00   0.51868516   0.03627764
4974.00   0.52105230   0.03676065
4976.00   0.51440912   0.03690023
4978.00   0.51591069   0.03798719
4980.00   0.53326792   0.03832451
4982.00   0.50282794   0.03827934
4984.00   0.50210255   0.03853330
4986.00   0.51338726   0.03822475
4988.00   0.47226292   0.03755867
4990.00   0.53460366   0.03749418
4992.00   0.49554488   0.03671025
4994.00   0.52654105   0.03630310
4996.00   0.50436532   0.03579840
4998.00   0.48598701   0.03546403
5000.00   0.51788116   0.03483514
5002.00   0.48031566   0.03478843
5004.00   0.39492834   0.03479930
5006.00   0.52208608   0.03494005
5008.00   0.60243303   0.03518500
5010.00   0.58163422   0.03527912
5012.00   0.58282775   0.03508407
5014.00   0.53776252   0.03505769
5016.00   0.52960950   0.03494444
5018.00   0.58550358   0.03517526
5020.00   0.63914019   0.03538352
5022.00   0.53628767   0.03512927
5024.00   0.61067444   0.03521622
5026.00   0.61271662   0.03527453
5028.00   0.63468677   0.03535102
5030.00   0.56968087   0.03520194
5032.00   0.57732892   0.03535250
5034.00   0.63616747   0.03533399
5036.00   0.67196888   0.03530863
5038.00   0.62037498   0.03516876
5040.00   0.66600519   0.03494603
5042.00   0.58888108   0.03450235
5044.00   0.59750533   0.03460079
5046.00   0.58898222   0.03460643
5048.00   0.58872008   0.03467664
5050.00   0.60347086   0.03499754
5052.00   0.65305758   0.03508441
5054.00   0.56864548   0.03541172
5056.00   0.41420335   0.03534085
5058.00   0.57977700   0.03532404
5060.00   0.62308782   0.03527969
5062.00   0.57018554   0.03558283
5064.00   0.58507526   0.03540469
5066.00   0.62348068   0.03590179
5068.00   0.60020745   0.03625375
5070.00   0.57942152   0.03646535
5072.00   0.61270446   0.03604344
5074.00   0.52600378   0.03574815
5076.00   0.55766213   0.03524371
5078.00   0.57886851   0.03526730
5080.00   0.61240137   0.03664193
5082.00   0.53949744   0.03762792
5084.00   0.57514435   0.03834310
5086.00   0.61214405   0.03858469
5088.00   0.56197703   0.03784717
5090.00   0.54714346   0.03698527
5092.00   0.56839669   0.03650073
5094.00   0.60113835   0.03616445
5096.00   0.55695802   0.03619274
5098.00   0.55618161   0.03619698
5100.00   0.54319417   0.03595094
5102.00   0.49122438   0.03515760
5104.00   0.51147538   0.03495131
5106.00   0.54853988   0.03496192
5108.00   0.51625395   0.03496365
5110.00   0.50526786   0.03499903
5112.00   0.46064872   0.03463739
5114.00   0.46681908   0.03478434
5116.00   0.50342834   0.03507038
5118.00   0.43271744   0.03456355
5120.00   0.40656358   0.03446341
5122.00   0.42432079   0.03425645
5124.00   0.45439735   0.03443791
5126.00   0.47732773   0.03423807
5128.00   0.48377094   0.03403383
5130.00   0.40399617   0.03384250
5132.00   0.34758174   0.03408511
5134.00   0.40639815   0.03364706
5136.00   0.40050977   0.03384906
5138.00   0.47146556   0.03383883
5140.00   0.39671263   0.03363704
5142.00   0.39193144   0.03371586
5144.00   0.44158584   0.03397052
5146.00   0.41241777   0.03383082
5148.00   0.42599952   0.03415949
5150.00   0.44786292   0.03507347
5152.00   0.44517338   0.03557540
5154.00   0.42143548   0.03570146
5156.00   0.39447558   0.03547773
5158.00   0.47746110   0.03574667
5160.00   0.45688179   0.03532341
5162.00   0.41195911   0.03455703
5164.00   0.45972210   0.03433284
5166.00   0.42495522   0.03406452
5168.00   0.43021509   0.03419866
5170.00   0.45171797   0.03402247
5172.00   0.46453062   0.03411009
5174.00   0.47659513   0.03439628
5176.00   0.45748377   0.03494862
5178.00   0.45409101   0.03515877
5180.00   0.51395279   0.03548356
5182.00   0.49755788   0.03543539
5184.00   0.54030603   0.03561383
5186.00   0.49179259   0.03519413
5188.00   0.51919836   0.03547657
5190.00   0.56499010   0.03565770
5192.00   0.57600224   0.03544546
5194.00   0.54869616   0.03588221
5196.00   0.55559319   0.03622922
5198.00   0.62021357   0.03645678
5200.00   0.49747354   0.03622878
5202.00   0.56833959   0.03666849
5204.00   0.51596302   0.03633874
5206.00   0.46384376   0.03635969
5208.00   0.55308938   0.03669222
5210.00   0.56032097   0.03702540
5212.00   0.53599721   0.03701181
5214.00   0.53846580   0.03666426
5216.00   0.53535473   0.03693913
5218.00   0.58133185   0.03736648
5220.00   0.55510998   0.03745826
5222.00   0.55057657   0.03764308
5224.00   0.57927579   0.03762062
5226.00   0.59545219   0.03744533
5228.00   0.53281868   0.03702142
5230.00   0.59186733   0.03708065
5232.00   0.54256803   0.03658359
5234.00   0.57621837   0.03649420
5236.00   0.56935805   0.03660151
5238.00   0.55098510   0.03703640
5240.00   0.58864146   0.03740199
5242.00   0.54354447   0.03740504
5244.00   0.51834488   0.03734559
5246.00   0.55269969   0.03719342
5248.00   0.55801308   0.03736882
5250.00   0.54066998   0.03732110
5252.00   0.52650434   0.03748809
5254.00   0.53038734   0.03774803
5256.00   0.47001159   0.03766843
5258.00   0.52686834   0.03802977
5260.00   0.54999322   0.03870974
5262.00   0.55071586   0.03855907
5264.00   0.53495741   0.03849378
5266.00   0.60121989   0.03864469
5268.00   0.56741214   0.03820574
5270.00   0.50655073   0.03814862
5272.00   0.53946680   0.03818576
5274.00   0.62967384   0.03846859
5276.00   0.53527826   0.03861910
5278.00   0.52444363   0.03923878
5280.00   0.51203024   0.03903052
5282.00   0.51028597   0.03927758
5284.00   0.52292579   0.03999593
5286.00   0.54061317   0.03982309
5288.00   0.54567403   0.04013501
5290.00   0.49799702   0.03970474
5292.00   0.58784765   0.04011530
5294.00   0.67555273   0.04024845
5296.00   0.54900867   0.04035372
5298.00   0.50181216   0.04005299
5300.00   0.57129341   0.04057449
5302.00   0.59013993   0.04064942
5304.00   0.57075322   0.04092779
5306.00   0.55836135   0.04114796
5308.00   0.57263047   0.04145401
5310.00   0.53899604   0.04141612
5312.00   0.50351298   0.04131133
5314.00   0.54392058   0.04151966
5316.00   0.55730867   0.04167973
5318.00   0.59086812   0.04200167
5320.00   0.54565483   0.04190031
5322.00   0.63876420   0.04232876
5324.00   0.65083092   0.04217037
5326.00   0.57350200   0.04210370
5328.00   0.53566521   0.04193069
5330.00   0.61854899   0.04239190
5332.00   0.58739668   0.04222265
5334.00   0.61285084   0.02906965
5336.00   0.55162394   0.02919934
5338.00   0.53256732   0.02934329
5340.00   0.52987504   0.02861495
5342.00   0.63637388   0.02863505
5344.00   0.55117476   0.02873330
5346.00   0.54994941   0.02942498
5348.00   0.57397401   0.02937520
5350.00   0.60148031   0.02871221
5352.00   0.59325528   0.02860472
5354.00   0.62127954   0.02847486
5356.00   0.66098553   0.02831549
5358.00   0.63541484   0.02869052
5360.00   0.67272770   0.02828673
5362.00   0.64809239   0.02722066
5364.00   0.63746232   0.02691367
5366.00   0.68438208   0.02741521
5368.00   0.66570836   0.02741289
5370.00   0.66630983   0.02723783
5372.00   0.68078160   0.02721700
5374.00   0.66809040   0.02729085
5376.00   0.63394362   0.02726748
5378.00   0.63653409   0.02641471
5380.00   0.64423966   0.02661142
5382.00   0.64775074   0.02637713
5384.00   0.64890420   0.02619454
5386.00   0.63883299   0.02538548
5388.00   0.61654907   0.02527565
5390.00   0.59951895   0.02502019
5392.00   0.66241205   0.02538426
5394.00   0.68203980   0.02530037
5396.00   0.64467442   0.02511524
5398.00   0.59459811   0.02488817
5400.00   0.62194884   0.02486511
5402.00   0.63833821   0.02489023
5404.00   0.63509697   0.02489682
5406.00   0.59967482   0.02488208
5408.00   0.65445340   0.02486243
5410.00   0.67894351   0.02485232
5412.00   0.64272326   0.02478391
5414.00   0.64187038   0.02474007
5416.00   0.63844568   0.02484089
5418.00   0.61617976   0.02486468
5420.00   0.65137923   0.02489571
5422.00   0.68182611   0.02496167
5424.00   0.68129563   0.02490856
5426.00   0.70122486   0.02451293
5428.00   0.69197077   0.02442789
5430.00   0.69197881   0.02428100
5432.00   0.63547009   0.02397310
5434.00   0.60208291   0.02362444
5436.00   0.62172568   0.02357741
5438.00   0.59996819   0.02364310
5440.00   0.59839737   0.02349579
5442.00   0.64036137   0.02332817
5444.00   0.69097948   0.02333303
5446.00   0.67567188   0.02344341
5448.00   0.67833459   0.02335459
5450.00   0.62799782   0.02333817
5452.00   0.63285691   0.02367415
5454.00   0.64482898   0.02455093
5456.00   0.59712374   0.02596401
5458.00   0.65078384   0.02720213
5460.00   0.58466637   0.02777421
5462.00   0.58254510   0.02705446
5464.00   0.60161620   0.02646737
5466.00   0.63743997   0.02579176
5468.00   0.64086318   0.02398544
5470.00   0.66642809   0.02255070
5472.00   0.62010986   0.02180433
5474.00   0.60240859   0.02148762
5476.00   0.55175328   0.02139507
5478.00   0.62528551   0.02145749
5480.00   0.63154709   0.02146580
5482.00   0.54137993   0.02143129
5484.00   0.68510067   0.02149064
5486.00   0.62455231   0.02140924
5488.00   0.62016970   0.02116612
5490.00   0.62469679   0.02085965
5492.00   0.58814287   0.02060597
5494.00   0.59016740   0.02049863
5496.00   0.60744786   0.02037101
5498.00   0.58459133   0.02017244
5500.00   0.59557229   0.02002205
5502.00   0.62045914   0.02002000
5504.00   0.60731244   0.02012651
5506.00   0.64838886   0.02006168
5508.00   0.66555095   0.02012874
5510.00   0.63639027   0.02027202
5512.00   0.62502146   0.02034211
5514.00   0.65625536   0.02025286
5516.00   0.61862624   0.02027041
5518.00   0.62047589   0.02030687
5520.00   0.63290757   0.02026442
5522.00   0.60363501   0.02013473
5524.00   0.63051111   0.02007801
5526.00   0.66094148   0.02000275
5528.00   0.64538091   0.01984563
5530.00   0.61135554   0.01964942
5532.00   0.59220225   0.01953530
5534.00   0.68325841   0.01966084
5536.00   0.69623643   0.01969478
5538.00   0.66908491   0.01964091
5540.00   0.61742175   0.01955732
5542.00   0.61314648   0.01948077
5544.00   0.62039679   0.01933034
5546.00   0.64379966   0.01929459
5548.00   0.55803603   0.01931104
5550.00   0.55235577   0.01932123
5552.00   0.57383788   0.01928790
5554.00   0.62775248   0.01914252
5556.00   0.61617768   0.01909794
5558.00   0.61702698   0.01912974
5560.00   0.64163768   0.01915558
5562.00   0.64060587   0.01911393
5564.00   0.61825174   0.01905477
5566.00   0.61122811   0.01908542
5568.00   0.58242953   0.01936094
5570.00   0.61150938   0.02018633
5572.00   0.58595812   0.02215141
5574.00   0.57391942   0.02432472
5576.00   0.60284925   0.02545533
5578.00   0.63920736   0.02548405
5580.00   0.64098245   0.02477307
5582.00   0.63499695   0.02336810
5584.00   0.64628005   0.02115329
5586.00   0.62434769   0.01924908
5588.00   0.62698781   0.01837876
5590.00   0.64722174   0.01840556
5592.00   0.64938480   0.01828700
5594.00   0.66352510   0.01820045
5596.00   0.66904664   0.01810311
5598.00   0.63424170   0.01801104
5600.00   0.65586430   0.01798613
5602.00   0.67127281   0.01797387
5604.00   0.66767609   0.01793949
5606.00   0.65045851   0.01787229
5608.00   0.63809562   0.01780133
5610.00   0.61268592   0.01776487
5612.00   0.63439369   0.01771781
5614.00   0.62310165   0.01772852
5616.00   0.61788464   0.01768947
5618.00   0.62142545   0.01756821
5620.00   0.61881697   0.01750422
5622.00   0.63107073   0.01750291
5624.00   0.62487221   0.01745285
5626.00   0.61236250   0.01738815
5628.00   0.61872309   0.01736487
5630.00   0.62316942   0.01731710
5632.00   0.61574459   0.01728396
5634.00   0.60853034   0.01722557
5636.00   0.61538583   0.01719195
5638.00   0.63648212   0.01722119
5640.00   0.62818688   0.01724683
5642.00   0.61885655   0.01723699
5644.00   0.59308356   0.01727098
5646.00   0.62824523   0.01733666
5648.00   0.62058938   0.01736638
5650.00   0.62835795   0.01733329
5652.00   0.61765301   0.01733148
5654.00   0.60297358   0.01730327
5656.00   0.56909108   0.01724687
5658.00   0.56143355   0.01720457
5660.00   0.63524646   0.01731313
5662.00   0.53212988   0.01740865
5664.00   0.54424131   0.01754509
5666.00   0.60087776   0.01777579
5668.00   0.60425991   0.01806196
5670.00   0.58425188   0.01845072
5672.00   0.60067725   0.01873990
5674.00   0.62321740   0.01889047
5676.00   0.62323666   0.01900470
5678.00   0.56393230   0.01934917
5680.00   0.55113375   0.01994038
5682.00   0.59387225   0.02073261
5684.00   0.60446602   0.02157244
5686.00   0.60003072   0.02224795
5688.00   0.55575669   0.02247010
5690.00   0.57017797   0.02222214
5692.00   0.58393592   0.02166064
5694.00   0.58849674   0.02090826
5696.00   0.60882014   0.02007348
5698.00   0.62343359   0.01931672
5700.00   0.62099141   0.01877134
5702.00   0.61196887   0.01836278
5704.00   0.61069101   0.01804734
5706.00   0.61765343   0.01783405
5708.00   0.61603582   0.01771919
5710.00   0.60585338   0.01763946
5712.00   0.60293019   0.01758776
5714.00   0.57453620   0.01751718
5716.00   0.55670220   0.01738174
5718.00   0.61727035   0.01723479
5720.00   0.61721659   0.01714321
5722.00   0.61050451   0.01714622
5724.00   0.57701182   0.01717268
5726.00   0.57038671   0.01695248
5728.00   0.55698049   0.01672760
5730.00   0.54705018   0.01657901
5732.00   0.55204809   0.01651541
5734.00   0.59076691   0.01651703
5736.00   0.57104373   0.01652935
5738.00   0.64282572   0.01650420
5740.00   0.60422373   0.01652178
5742.00   0.60521758   0.01657092
5744.00   0.61420804   0.01658921
5746.00   0.61157984   0.01651725
5748.00   0.60683918   0.01648545
5750.00   0.55912787   0.01649635
5752.00   0.55083382   0.01652063
5754.00   0.58850884   0.01652578
5756.00   0.60934830   0.01661832
5758.00   0.63154417   0.01666744
5760.00   0.62532306   0.01678584
5762.00   0.60092396   0.01707062
5764.00   0.59722710   0.01757133
5766.00   0.62312543   0.01817719
5768.00   0.66471517   0.01856986
5770.00   0.63820493   0.01866632
5772.00   0.56854606   0.01848067
5774.00   0.57386196   0.01808827
5776.00   0.57600439   0.01742786
5778.00   0.57528561   0.01686761
5780.00   0.56354296   0.01660302
5782.00   0.54638463   0.01668798
5784.00   0.50137979   0.01703381
5786.00   0.52724326   0.01758571
5788.00   0.58275694   0.01818451
5790.00   0.59014368   0.01857024
5792.00   0.56670630   0.01862116
5794.00   0.56607926   0.01851250
5796.00   0.58003944   0.01806794
5798.00   0.58398551   0.01757634
5800.00   0.60326183   0.01728093
5802.00   0.59587699   0.01724624
5804.00   0.58400840   0.01725339
5806.00   0.61275959   0.01723751
5808.00   0.63610399   0.01719566
5810.00   0.67299247   0.01714516
5812.00   0.67571354   0.01712279
5814.00   0.62093782   0.01730103
5816.00   0.59617281   0.01727192
5818.00   0.63850671   0.01717937
5820.00   0.63954401   0.01715995
5822.00   0.65484393   0.01721261
5824.00   0.64245081   0.01723469
5826.00   0.59289312   0.01721705
5828.00   0.58617300   0.01723057
5830.00   0.58101749   0.01728964
5832.00   0.56946117   0.01734359
5834.00   0.57608366   0.01736178
5836.00   0.59422237   0.01743468
5838.00   0.60902476   0.01750242
5840.00   0.60848629   0.01752936
5842.00   0.58497798   0.01758081
5844.00   0.63031107   0.01772351
5846.00   0.59201765   0.01777414
5848.00   0.63226336   0.01774447
5850.00   0.62782425   0.01769895
5852.00   0.57429624   0.01768429
5854.00   0.56387222   0.01767858
5856.00   0.56045878   0.01771722
5858.00   0.56674063   0.01781868
5860.00   0.58180666   0.01798207
5862.00   0.58703250   0.01811212
5864.00   0.58766520   0.01824476
5866.00   0.55413526   0.01836623
5868.00   0.59142321   0.01846337
5870.00   0.64841831   0.01852477
5872.00   0.65014863   0.01848150
5874.00   0.61725932   0.01831756
5876.00   0.60133052   0.01815194
5878.00   0.62994277   0.01803579
5880.00   0.60724038   0.01796827
5882.00   0.59877402   0.01859516
5884.00   0.56828612   0.02142168
5886.00   0.53362137   0.02524127
5888.00   0.48396552   0.02871058
5890.00   0.52889985   0.03102428
5892.00   0.47066465   0.03304365
5894.00   0.46161199   0.03359406
5896.00   0.50514579   0.03200299
5898.00   0.56335163   0.02947032
5900.00   0.58829528   0.02686819
5902.00   0.65375388   0.02341063
5904.00   0.64939487   0.02004631
5906.00   0.60421216   0.01805322
5908.00   0.58061934   0.01801497
5910.00   0.62019378   0.01818272
5912.00   0.62199682   0.01819550
5914.00   0.61659682   0.01821242
5916.00   0.62884182   0.01828109
5918.00   0.64877605   0.01833929
5920.00   0.63357556   0.01824848
5922.00   0.61502153   0.01815029
5924.00   0.60739756   0.01809545
5926.00   0.61334342   0.01813017
5928.00   0.62385726   0.01825142
5930.00   0.62146598   0.01834900
5932.00   0.56821299   0.01832359
5934.00   0.56965005   0.01824871
5936.00   0.60335183   0.01816285
5938.00   0.62251174   0.01805393
5940.00   0.66906291   0.01787528
5942.00   0.66237766   0.01767684
5944.00   0.62012219   0.01755267
5946.00   0.62102276   0.01753808
5948.00   0.63927984   0.01755390
5950.00   0.62442201   0.01757625
5952.00   0.62988043   0.01757571
5954.00   0.63590413   0.01751227
5956.00   0.61844414   0.01737629
5958.00   0.59703773   0.01724107
5960.00   0.57909948   0.01700491
5962.00   0.55472070   0.01669307
5964.00   0.50335181   0.01646038
5966.00   0.53110147   0.01641072
5968.00   0.54548407   0.01641939
5970.00   0.58743393   0.01644553
5972.00   0.58995354   0.01651727
5974.00   0.56114751   0.01661221
5976.00   0.61047184   0.01669545
5978.00   0.62450099   0.01677345
5980.00   0.62717748   0.01674739
5982.00   0.58966541   0.01667246
5984.00   0.59949565   0.01661439
5986.00   0.62651002   0.01661916
5988.00   0.64134699   0.01653847
5990.00   0.63788956   0.01649025
5992.00   0.63179982   0.01643994
5994.00   0.59346378   0.01640879
5996.00   0.64490390   0.01644021
5998.00   0.63214904   0.01639586
6000.00   0.63018095   0.01629275
6002.00   0.60128921   0.01622818
6004.00   0.63723779   0.01622798
6006.00   0.66077244   0.01621602
6008.00   0.65055275   0.01613844
6010.00   0.64021689   0.01604271
6012.00   0.63295412   0.01595445
6014.00   0.62650836   0.01589492
6016.00   0.61411810   0.01585261
6018.00   0.63711751   0.01583881
6020.00   0.64907151   0.01582504
6022.00   0.64286000   0.01577502
6024.00   0.63123393   0.01569835
6026.00   0.64473742   0.01565323
6028.00   0.65524989   0.01565918
6030.00   0.65154040   0.01563800
6032.00   0.63286626   0.01558631
6034.00   0.61852360   0.01555495
6036.00   0.62596279   0.01553212
6038.00   0.62742257   0.01553574
6040.00   0.63409913   0.01550806
6042.00   0.63605118   0.01543993
6044.00   0.60656458   0.01536659
6046.00   0.60621542   0.01532866
6048.00   0.63083524   0.01535630
6050.00   0.64355624   0.01536912
6052.00   0.63043809   0.01533122
6054.00   0.61302376   0.01526108
6056.00   0.60869694   0.01514207
6058.00   0.60066736   0.01509892
6060.00   0.59827507   0.01511082
6062.00   0.60033965   0.01513463
6064.00   0.59710395   0.01512941
6066.00   0.61439842   0.01516432
6068.00   0.62874418   0.01523040
6070.00   0.66770613   0.01526498
6072.00   0.63053513   0.01521875
6074.00   0.62507695   0.01514292
6076.00   0.62819248   0.01510574
6078.00   0.62726086   0.01507739
6080.00   0.62208062   0.01504374
6082.00   0.61417127   0.01500015
6084.00   0.61589396   0.01495083
6086.00   0.59715217   0.01498649
6088.00   0.61628288   0.01505854
6090.00   0.62689555   0.01511514
6092.00   0.62701458   0.01513887
6094.00   0.61637866   0.01509125
6096.00   0.59561527   0.01509859
6098.00   0.59509408   0.01515556
6100.00   0.61690795   0.01526872
6102.00   0.62386382   0.01542325
6104.00   0.61844236   0.01559121
6106.00   0.61573714   0.01586699
6108.00   0.62391394   0.01619307
6110.00   0.62949926   0.01650375
6112.00   0.59898567   0.01676151
6114.00   0.60867244   0.01680334
6116.00   0.61656135   0.01669991
6118.00   0.62248969   0.01648236
6120.00   0.63340819   0.01618874
6122.00   0.64062244   0.01587860
6124.00   0.64543623   0.01565117
6126.00   0.63764948   0.01549771
6128.00   0.62837380   0.01538740
6130.00   0.63095248   0.01530840
6132.00   0.62940383   0.01526070
6134.00   0.61472601   0.01519981
6136.00   0.60747784   0.01516721
6138.00   0.60856581   0.01519172
6140.00   0.57221758   0.01525699
6142.00   0.57838190   0.01527377
6144.00   0.61934370   0.01529388
6146.00   0.63438129   0.01532579
6148.00   0.64666975   0.01537936
6150.00   0.63071907   0.01545653
6152.00   0.62666756   0.01550969
6154.00   0.62446493   0.01554261
6156.00   0.61021572   0.01567693
6158.00   0.60351747   0.01585771
6160.00   0.64137852   0.01589277
6162.00   0.64015031   0.01570009
6164.00   0.62422204   0.01551742
6166.00   0.63410014   0.01532500
6168.00   0.65926301   0.01509087
6170.00   0.62999660   0.01483533
6172.00   0.60566825   0.01469931
6174.00   0.61853385   0.01465621
6176.00   0.63842756   0.01459418
6178.00   0.63447511   0.01448152
6180.00   0.62487215   0.01449107
6182.00   0.63753259   0.01451067
6184.00   0.63857418   0.01451780
6186.00   0.62890261   0.01450577
6188.00   0.66270828   0.01448571
6190.00   0.62453198   0.01445029
6192.00   0.63022280   0.01446906
6194.00   0.61295432   0.01444793
6196.00   0.58854783   0.01440040
6198.00   0.59171450   0.01439043
6200.00   0.60386437   0.01442902
6202.00   0.61288691   0.01444136
6204.00   0.61300105   0.01445414
6206.00   0.59961998   0.01448400
6208.00   0.57451582   0.01451035
6210.00   0.56742185   0.01444933
6212.00   0.58149183   0.01439850
6214.00   0.59319067   0.01436161
6216.00   0.63104534   0.01432515
6218.00   0.60404271   0.01428091
6220.00   0.60907358   0.01428034
6222.00   0.61463612   0.01424998
6224.00   0.62512064   0.01424814
6226.00   0.63455379   0.01428813
6228.00   0.62486368   0.01428559
6230.00   0.61842275   0.01432260
6232.00   0.60982442   0.01441016
6234.00   0.60231656   0.01452305
6236.00   0.59968233   0.01461955
6238.00   0.57809091   0.01468953
6240.00   0.57525164   0.01462148
6242.00   0.58640027   0.01447074
6244.00   0.59892344   0.01434383
6246.00   0.60207736   0.01430396
6248.00   0.63494289   0.01420987
6250.00   0.62061578   0.01416343
6252.00   0.61622059   0.01423312
6254.00   0.64148438   0.01436561
6256.00   0.60019886   0.01445320
6258.00   0.61470449   0.01457940
6260.00   0.62639570   0.01464573
6262.00   0.62927514   0.01464900
6264.00   0.58357704   0.01454506
6266.00   0.58650327   0.01427862
6268.00   0.58196819   0.01410281
6270.00   0.59988171   0.01404912
6272.00   0.64213252   0.01404578
6274.00   0.61486137   0.01405454
6276.00   0.61002040   0.01410447
6278.00   0.60315293   0.01416012
6280.00   0.61023396   0.01425499
6282.00   0.61344373   0.01428185
6284.00   0.60642397   0.01423627
6286.00   0.60915017   0.01428290
6288.00   0.61597562   0.01428939
6290.00   0.61265469   0.01420235
6292.00   0.60652488   0.01419788
6294.00   0.60663289   0.01449493
6296.00   0.59841436   0.01521506
6298.00   0.59992528   0.01573875
6300.00   0.59408939   0.01605885
6302.00   0.58872628   0.01622972
6304.00   0.59763795   0.01621735
6306.00   0.61501205   0.01556091
6308.00   0.59994787   0.01492092
6310.00   0.59306705   0.01449765
6312.00   0.60256201   0.01422471
6314.00   0.61037838   0.01390779
6316.00   0.59958613   0.01379882
6318.00   0.60530871   0.01384459
6320.00   0.60755157   0.01383523
6322.00   0.63535070   0.01372640
6324.00   0.56284958   0.01362025
6326.00   0.56681764   0.01371233
6328.00   0.56313384   0.01376865
6330.00   0.55546260   0.01375839
6332.00   0.55406129   0.01370292
6334.00   0.56718498   0.01365277
6336.00   0.57012063   0.01353551
6338.00   0.55713075   0.01341922
6340.00   0.55204213   0.01336106
6342.00   0.56772578   0.01340496
6344.00   0.59519255   0.01352495
6346.00   0.58734190   0.01350441
6348.00   0.56103182   0.01343538
6350.00   0.54488093   0.01342826
6352.00   0.58300889   0.01352379
6354.00   0.56867385   0.01364031
6356.00   0.56145263   0.01367302
6358.00   0.55841744   0.01375259
6360.00   0.56635553   0.01390040
6362.00   0.57747412   0.01404855
6364.00   0.56624216   0.01396736
6366.00   0.56047279   0.01393436
6368.00   0.57130551   0.01385827
6370.00   0.58796579   0.01367402
6372.00   0.59358221   0.01338740
6374.00   0.58353865   0.01330783
6376.00   0.56953675   0.01335134
6378.00   0.56926715   0.01339300
6380.00   0.57317853   0.01340081
6382.00   0.55508053   0.01342888
6384.00   0.55776107   0.01343673
6386.00   0.56715178   0.01340116
6388.00   0.57152361   0.01334630
6390.00   0.56912434   0.01327243
6392.00   0.55874306   0.01309729
6394.00   0.56320035   0.01301153
6396.00   0.54392314   0.01297664
6398.00   0.52092779   0.01301572
6400.00   0.51762319   0.01310219
6402.00   0.54398829   0.01313880
6404.00   0.55367953   0.01314312
6406.00   0.55023974   0.01313115
6408.00   0.54679841   0.01308538
6410.00   0.54949296   0.01302902
6412.00   0.54051673   0.01305547
6414.00   0.53275406   0.01314846
6416.00   0.53804362   0.01306452
6418.00   0.53891534   0.01289314
6420.00   0.51637381   0.01286994
6422.00   0.52397561   0.01282853
6424.00   0.53116566   0.01278316
6426.00   0.52791309   0.01277520
6428.00   0.52242804   0.01278004
6430.00   0.53980011   0.01276197
6432.00   0.54516000   0.01275481
6434.00   0.53132921   0.01279130
6436.00   0.50908881   0.01270392
6438.00   0.48939437   0.01253954
6440.00   0.49097854   0.01252973
6442.00   0.50669628   0.01254843
6444.00   0.51556551   0.01256930
6446.00   0.51252073   0.01256420
6448.00   0.50383955   0.01255358
6450.00   0.49810454   0.01259589
6452.00   0.49537921   0.01261356
6454.00   0.50506949   0.01264057
6456.00   0.51180571   0.01265852
6458.00   0.50447810   0.01266402
6460.00   0.47057950   0.01275007
6462.00   0.50931859   0.01283082
6464.00   0.50189960   0.01285359
6466.00   0.48874620   0.01288377
6468.00   0.48970097   0.01296057
6470.00   0.50216866   0.01286789
6472.00   0.49994174   0.01266421
6474.00   0.49417821   0.01252721
6476.00   0.48956117   0.01245832
6478.00   0.48829275   0.01237189
6480.00   0.49770114   0.01230168
6482.00   0.49274492   0.01239262
6484.00   0.48014069   0.01248065
6486.00   0.47825783   0.01250182
6488.00   0.49930397   0.01250469
6490.00   0.51173347   0.01259660
6492.00   0.52133453   0.01272136
6494.00   0.52185798   0.01284378
6496.00   0.51504177   0.01291485
6498.00   0.51627439   0.01290428
6500.00   0.53045350   0.01303416
6502.00   0.53943056   0.01316335
6504.00   0.54123962   0.01314001
6506.00   0.54356134   0.01297408
6508.00   0.56041342   0.01292749
6510.00   0.55195892   0.01288011
6512.00   0.54677749   0.01277675
6514.00   0.54305220   0.01267424
6516.00   0.53876132   0.01265669
6518.00   0.53924179   0.01271049
6520.00   0.54875159   0.01277170
6522.00   0.57571912   0.01289542
6524.00   0.61016673   0.01304168
6526.00   0.63168436   0.01315898
6528.00   0.64861715   0.01327202
6530.00   0.61238337   0.01338680
6532.00   0.61838627   0.01348115
6534.00   0.63835150   0.01355589
6536.00   0.66498417   0.01359244
6538.00   0.65176100   0.01354760
6540.00   0.66639930   0.01350144
6542.00   0.68715537   0.01349052
6544.00   0.69734871   0.01350989
6546.00   0.68938786   0.01353037
6548.00   0.67610079   0.01362224
6550.00   0.67069447   0.01377285
6552.00   0.65739048   0.01388290
6554.00   0.72199929   0.01394185
6556.00   0.75776982   0.01405686
6558.00   0.75652307   0.01419843
6560.00   0.74414039   0.01423908
6562.00   0.75622028   0.01425546
6564.00   0.75078988   0.01428552
6566.00   0.74050826   0.01422371
6568.00   0.71788961   0.01402946
6570.00   0.65943038   0.01380393
6572.00   0.65557474   0.01369732
6574.00   0.68805707   0.01375561
6576.00   0.69709957   0.01376938
6578.00   0.73041958   0.01382230
6580.00   0.73506087   0.01388041
6582.00   0.71019471   0.01390710
6584.00   0.72484052   0.01388790
6586.00   0.72638249   0.01391887
6588.00   0.77672833   0.01385849
6590.00   0.79747283   0.01384377
6592.00   0.80342335   0.01394727
6594.00   0.77300572   0.01412569
6596.00   0.74990296   0.01416998
6598.00   0.73530591   0.01401967
6600.00   0.75270033   0.01395911
6602.00   0.79719973   0.01402121
6604.00   0.79342401   0.01395677
6606.00   0.79017520   0.01420062
6608.00   0.79798341   0.01407460
6610.00   0.80587304   0.01384492
6612.00   0.77656519   0.01377005
6614.00   0.80334240   0.01374480
6616.00   0.80540007   0.01372956
6618.00   0.79906976   0.01375047
6620.00   0.75982082   0.01377428
6622.00   0.79255933   0.01380409
6624.00   0.79527545   0.01394474
6626.00   0.80707365   0.01397667
6628.00   0.82976192   0.01405723
6630.00   0.78842390   0.01440372
6632.00   0.81403071   0.01398819
6634.00   0.84899133   0.01381505
6636.00   0.85315931   0.01370358
6638.00   0.81435883   0.01716926
6640.00   0.95901954   0.02078842
6642.00   0.91702002   0.02464869
6644.00   1.50911272   0.02737422
6646.00   1.48687673   0.02496717
6648.00   1.20530069   0.02082882
6650.00   0.89766908   0.01712954
6652.00   0.78810400   0.01356160
6654.00   0.69581008   0.01327804
6656.00   0.70298886   0.01335166
6658.00   0.74835753   0.01364569
6660.00   0.77672827   0.01415665
6662.00   0.78297353   0.01474973
6664.00   0.81048149   0.01497998
6666.00   0.82926732   0.01487486
6668.00   0.85551906   0.01453577
6670.00   0.86090034   0.01410729
6672.00   0.81825638   0.01372960
6674.00   0.79784852   0.01349000
6676.00   0.78663814   0.01341153
6678.00   0.73746365   0.01337176
6680.00   0.71019721   0.01330280
6682.00   0.71430588   0.01330584
6684.00   0.73366135   0.01333784
6686.00   0.73152173   0.01332883
6688.00   0.71861970   0.01327933
6690.00   0.71639782   0.01322717
6692.00   0.72044456   0.01323172
6694.00   0.71537668   0.01319476
6696.00   0.72212887   0.01320930
6698.00   0.72565317   0.01325264
6700.00   0.70930058   0.01327423
6702.00   0.70662296   0.01331464
6704.00   0.69637871   0.01330357
6706.00   0.68188477   0.01329570
6708.00   0.67805690   0.01331716
6710.00   0.70125437   0.01333986
6712.00   0.68905586   0.01327696
6714.00   0.67135018   0.01318248
6716.00   0.70666087   0.01310951
6718.00   0.68489110   0.01307118
6720.00   0.68644732   0.01303788
6722.00   0.68313074   0.01298806
6724.00   0.66903126   0.01295636
6726.00   0.66300815   0.01296329
6728.00   0.67376578   0.01297699
6730.00   0.68185568   0.01289909
6732.00   0.66734022   0.01285443
6734.00   0.66131705   0.01289126
6736.00   0.66120827   0.01292303
6738.00   0.65857470   0.01287036
6740.00   0.65626913   0.01277415
6742.00   0.65052539   0.01275266
6744.00   0.64315659   0.01271932
6746.00   0.64056027   0.01267637
6748.00   0.64935136   0.01265477
6750.00   0.65391082   0.01261907
6752.00   0.63969898   0.01262885
6754.00   0.63940644   0.01263834
6756.00   0.64815974   0.01261485
6758.00   0.64449537   0.01254664
6760.00   0.63484675   0.01252446
6762.00   0.63873065   0.01252817
6764.00   0.64218819   0.01252431
6766.00   0.63659978   0.01249773
6768.00   0.62176979   0.01245809
6770.00   0.61373019   0.01243403
6772.00   0.61684656   0.01243102
6774.00   0.65667367   0.01244849
6776.00   0.66454923   0.01247143
6778.00   0.64705199   0.01245763
6780.00   0.58446860   0.01239113
6782.00   0.61948645   0.01234951
6784.00   0.61910194   0.01235786
6786.00   0.61514276   0.01237953
6788.00   0.61791086   0.01231568
6790.00   0.61104661   0.01228637
6792.00   0.62014812   0.01232452
6794.00   0.62833333   0.01241358
6796.00   0.62552202   0.01250993
6798.00   0.60347152   0.01258067
6800.00   0.66433531   0.01261760
6802.00   0.65844631   0.01257164
6804.00   0.63407826   0.01243063
6806.00   0.62091523   0.01225061
6808.00   0.62182921   0.01222825
6810.00   0.61875033   0.01231199
6812.00   0.62825954   0.01241300
6814.00   0.64371461   0.01247693
6816.00   0.64078289   0.01246836
6818.00   0.60887277   0.01234471
6820.00   0.59269500   0.01221057
6822.00   0.59386957   0.01221626
6824.00   0.60110527   0.01238062
6826.00   0.60608065   0.01260400
6828.00   0.58649188   0.01279209
6830.00   0.54558390   0.01298883
6832.00   0.58286327   0.01309478
6834.00   0.58880550   0.01302760
6836.00   0.59315604   0.01277515
6838.00   0.58851218   0.01251030
6840.00   0.58127111   0.01229999
6842.00   0.58151746   0.01214815
6844.00   0.58668792   0.01205677
6846.00   0.58119285   0.01202719
6848.00   0.59164214   0.01198951
6850.00   0.60346812   0.01194589
6852.00   0.60280627   0.01189851
6854.00   0.59318793   0.01186800
6856.00   0.59762299   0.01188591
6858.00   0.60513234   0.01218930
6860.00   0.60844451   0.01260393
6862.00   0.60377216   0.01297545
6864.00   0.59765911   0.01329803
6866.00   0.60622346   0.01396632
6868.00   0.59937924   0.01435812
6870.00   0.58322424   0.01420821
6872.00   0.57264644   0.01375876
6874.00   0.57791275   0.01349770
6876.00   0.59037596   0.01327200
6878.00   0.59364069   0.01295703
6880.00   0.58951223   0.01262463
6882.00   0.58534688   0.01238917
6884.00   0.58737034   0.01232881
6886.00   0.59321594   0.01240037
6888.00   0.58613384   0.01249641
6890.00   0.57226098   0.01254995
6892.00   0.56352597   0.01252912
6894.00   0.56881756   0.01246148
6896.00   0.56915307   0.01240830
6898.00   0.57669955   0.01241663
6900.00   0.58045995   0.01243867
6902.00   0.54272938   0.01241888
6904.00   0.58074659   0.01233201
6906.00   0.58920956   0.01229115
6908.00   0.58599395   0.01228537
6910.00   0.58160192   0.01231698
6912.00   0.58321494   0.01235422
6914.00   0.57375973   0.01229919
6916.00   0.58381033   0.01226772
6918.00   0.58974695   0.01228693
6920.00   0.58350688   0.01231884
6922.00   0.54176331   0.01232054
6924.00   0.53971183   0.01238059
6926.00   0.53542024   0.01235233
6928.00   0.56390995   0.01216834
6930.00   0.56498533   0.01194596
6932.00   0.56786984   0.01187951
6934.00   0.57275414   0.01192342
6936.00   0.55888474   0.01198230
6938.00   0.55025429   0.01207359
6940.00   0.55511320   0.01217618
6942.00   0.52276516   0.01223554
6944.00   0.54399824   0.01231958
6946.00   0.54586506   0.01236040
6948.00   0.55866581   0.01240120
6950.00   0.59986401   0.01246099
6952.00   0.61036003   0.01248261
6954.00   0.57076544   0.01226563
6956.00   0.56891716   0.01208605
6958.00   0.57787257   0.01198546
6960.00   0.58857751   0.01191576
6962.00   0.57735664   0.01182345
6964.00   0.57028413   0.01180309
6966.00   0.56356061   0.01181331
6968.00   0.58809042   0.01184078
6970.00   0.59555101   0.01188734
6972.00   0.58739454   0.01198028
6974.00   0.58101660   0.01210514
6976.00   0.57520342   0.01215698
6978.00   0.58194357   0.01216207
6980.00   0.59836984   0.01219078
6982.00   0.58288676   0.01212020
6984.00   0.57592732   0.01196257
6986.00   0.57869720   0.01186317
6988.00   0.58353519   0.01186645
6990.00   0.57976449   0.01191053
6992.00   0.56683075   0.01190877
6994.00   0.57346219   0.01191876
6996.00   0.58544087   0.01193770
6998.00   0.59340012   0.01194243
7000.00   0.58993214   0.01189199
7002.00   0.58179438   0.01187471
7004.00   0.57863384   0.01192419
7006.00   0.57986140   0.01200415
7008.00   0.58179420   0.01205719
7010.00   0.58266538   0.01203013
7012.00   0.57543176   0.01192876
7014.00   0.57260072   0.01191730
7016.00   0.58036971   0.01193026
7018.00   0.59036589   0.01187888
7020.00   0.57591814   0.01176996
7022.00   0.56873596   0.01179934
7024.00   0.56673384   0.01182593
7026.00   0.56556028   0.01185601
7028.00   0.56402302   0.01192330
7030.00   0.57254595   0.01197512
7032.00   0.56683689   0.01190079
7034.00   0.56625402   0.01183051
7036.00   0.57525706   0.01182954
7038.00   0.58553660   0.01189194
7040.00   0.58643627   0.01191328
7042.00   0.56575471   0.01191316
7044.00   0.55681080   0.01197167
7046.00   0.56649524   0.01206332
7048.00   0.57857007   0.01208869
7050.00   0.56244892   0.01205322
7052.00   0.56931973   0.01204549
7054.00   0.58393312   0.01203119
7056.00   0.59105730   0.01199833
7058.00   0.58378530   0.01197761
7060.00   0.57568818   0.01195935
7062.00   0.56724572   0.01192830
7064.00   0.56081074   0.01190918
7066.00   0.55727214   0.01192325
7068.00   0.55494004   0.01197632
7070.00   0.56278044   0.01199261
7072.00   0.56761450   0.01199079
7074.00   0.56540883   0.01197123
7076.00   0.56078458   0.01196127
7078.00   0.56620115   0.01200860
7080.00   0.57258159   0.01204544
7082.00   0.57436627   0.01201442
7084.00   0.56958580   0.01196314
7086.00   0.55968374   0.01195622
7088.00   0.55102223   0.01200897
7090.00   0.54014742   0.01200300
7092.00   0.57297301   0.01196321
7094.00   0.56166452   0.01192560
7096.00   0.57238185   0.01191812
7098.00   0.57339948   0.01190365
7100.00   0.57723236   0.01189756
7102.00   0.57947171   0.01190512
7104.00   0.57893431   0.01190169
7106.00   0.57847553   0.01185331
7108.00   0.57880378   0.01185325
7110.00   0.57457024   0.01184503
7112.00   0.56669766   0.01182571
7114.00   0.59136188   0.01182423
7116.00   0.54704332   0.01185977
7118.00   0.55184811   0.01187342
7120.00   0.57003361   0.01192995
7122.00   0.57834500   0.01197624
7124.00   0.56436646   0.01198162
7126.00   0.55822748   0.01200330
7128.00   0.57156789   0.01203313
7130.00   0.57978040   0.01205762
7132.00   0.57974792   0.01206270
7134.00   0.57773495   0.01205154
7136.00   0.57714361   0.01207416
7138.00   0.58736032   0.01202865
7140.00   0.58077359   0.01198712
7142.00   0.56532395   0.01197809
7144.00   0.55586261   0.01198840
7146.00   0.55494910   0.01195892
7148.00   0.55371118   0.01193697
7150.00   0.55365473   0.01189211
7152.00   0.55563986   0.01184987
7154.00   0.55834597   0.01184893
7156.00   0.55518502   0.01179036
7158.00   0.54180932   0.01195185
7160.00   0.54439831   0.01225654
7162.00   0.56105679   0.01241840
7164.00   0.56846273   0.01211279
7166.00   0.56498587   0.01221757
7168.00   0.56871837   0.01243814
7170.00   0.57289267   0.01261470
7172.00   0.56942129   0.01266488
7174.00   0.56141269   0.01261214
7176.00   0.54932421   0.01259930
7178.00   0.53167188   0.01262207
7180.00   0.51993620   0.01260164
7182.00   0.52261370   0.01254195
7184.00   0.53029275   0.01259334
7186.00   0.57949317   0.01282667
7188.00   0.55447328   0.01292111
7190.00   0.54628533   0.01282360
7192.00   0.53667754   0.01265335
7194.00   0.56130469   0.01270128
7196.00   0.55734015   0.01271133
7198.00   0.55023366   0.01266325
7200.00   0.54792762   0.01260539
7202.00   0.54580200   0.01258795
7204.00   0.53262728   0.01253173
7206.00   0.54389054   0.01240076
7208.00   0.54646569   0.01222945
7210.00   0.53954875   0.01205936
7212.00   0.53776342   0.01191164
7214.00   0.53945649   0.01183770
7216.00   0.53753376   0.01178370
7218.00   0.53196818   0.01178778
7220.00   0.52703846   0.01182320
7222.00   0.53281963   0.01181554
7224.00   0.54411167   0.01189881
7226.00   0.54005539   0.01203609
7228.00   0.53934592   0.01214318
7230.00   0.54452181   0.01220045
7232.00   0.52647418   0.01225522
7234.00   0.52688140   0.01289536
7236.00   0.55131924   0.01371206
7238.00   0.55875158   0.01433838
7240.00   0.53175855   0.01471160
7242.00   0.52433342   0.01523434
7244.00   0.52657157   0.01534961
7246.00   0.53868657   0.01496276
7248.00   0.54454678   0.01431172
7250.00   0.53261495   0.01370062
7252.00   0.57918048   0.01312096
7254.00   0.53105515   0.01282263
7256.00   0.52329117   0.01265847
7258.00   0.52759123   0.01250714
7260.00   0.53243196   0.01230509
7262.00   0.54589802   0.01219801
7264.00   0.54212207   0.01215031
7266.00   0.53695387   0.01217409
7268.00   0.53700989   0.01232929
7270.00   0.54029214   0.01273511
7272.00   0.53414881   0.01352104
7274.00   0.53546971   0.01413905
7276.00   0.52822584   0.01452172
7278.00   0.51960415   0.01467424
7280.00   0.52441084   0.01457809
7282.00   0.52679282   0.01388765
7284.00   0.50855279   0.01318292
7286.00   0.50722975   0.01286066
7288.00   0.56738293   0.01288821
7290.00   0.55264783   0.01271225
7292.00   0.55085373   0.01253425
7294.00   0.54445106   0.01237549
7296.00   0.54457700   0.01227616
7298.00   0.55253869   0.01226855
7300.00   0.55308574   0.01234756
7302.00   0.52421695   0.01236022
7304.00   0.52429593   0.01246994
7306.00   0.54333258   0.01255661
7308.00   0.55157924   0.01251160
7310.00   0.56992829   0.01260180
7312.00   0.54715919   0.01311456
7314.00   0.54046273   0.01355255
7316.00   0.54442400   0.01373876
7318.00   0.53406388   0.01368716
7320.00   0.53816581   0.01341823
7322.00   0.55602616   0.01284222
7324.00   0.56990135   0.01241830
7326.00   0.57122976   0.01233955
7328.00   0.56554991   0.01243995
7330.00   0.55530345   0.01248401
7332.00   0.55020386   0.01242107
7334.00   0.55541056   0.01250155
7336.00   0.59843999   0.01284768
7338.00   0.55007821   0.01334807
7340.00   0.55938053   0.01351134
7342.00   0.55365777   0.01351119
7344.00   0.55132520   0.01335320
7346.00   0.55519754   0.01295598
7348.00   0.53187066   0.01212432
7350.00   0.54444063   0.01176937
7352.00   0.55126566   0.01174851
7354.00   0.55565178   0.01194947
7356.00   0.56797773   0.01220960
7358.00   0.56758118   0.01235412
7360.00   0.55807966   0.01227562
7362.00   0.54676718   0.01227659
7364.00   0.54636884   0.01246001
7366.00   0.53312457   0.01274628
7368.00   0.55754930   0.01286808
7370.00   0.53011030   0.01289288
7372.00   0.52157038   0.01273742
7374.00   0.52771592   0.01236857
7376.00   0.55966085   0.01184442
7378.00   0.55765587   0.01162213
7380.00   0.54009604   0.01148023
7382.00   0.52633172   0.01142735
7384.00   0.53466421   0.01146397
7386.00   0.52546453   0.01157440
7388.00   0.55839318   0.01175218
7390.00   0.58254683   0.01181854
7392.00   0.54502577   0.01184715
7394.00   0.54190248   0.01193447
7396.00   0.55651528   0.01212632
7398.00   0.54233998   0.01221802
7400.00   0.54863471   0.01229262
7402.00   0.55651683   0.01230375
7404.00   0.55313152   0.01220549
7406.00   0.54807770   0.01203464
7408.00   0.55977237   0.01174011
7410.00   0.56130737   0.01143060
7412.00   0.55111468   0.01124121
7414.00   0.53788906   0.01123388
7416.00   0.53927749   0.01127122
7418.00   0.54438984   0.01126791
7420.00   0.55591452   0.01127031
7422.00   0.55903506   0.01130083
7424.00   0.54621959   0.01137576
7426.00   0.55110568   0.01148337
7428.00   0.55292583   0.01154092
7430.00   0.54652411   0.01157247
7432.00   0.54548538   0.01163674
7434.00   0.56568277   0.01176696
7436.00   0.57139897   0.01180920
7438.00   0.56048161   0.01179615
7440.00   0.55263638   0.01176821
7442.00   0.55296040   0.01168952
7444.00   0.55202520   0.01147480
7446.00   0.55269259   0.01126879
7448.00   0.54548669   0.01119441
7450.00   0.54346001   0.01120581
7452.00   0.55226666   0.01124452
7454.00   0.55902827   0.01127730
7456.00   0.55149132   0.01128974
7458.00   0.55039203   0.01132878
7460.00   0.55406064   0.01141496
7462.00   0.55826145   0.01152567
7464.00   0.56529737   0.01159397
7466.00   0.55768442   0.01169481
7468.00   0.56140560   0.01184752
7470.00   0.57506758   0.01197287
7472.00   0.58536243   0.01200370
7474.00   0.57118708   0.01198298
7476.00   0.56712037   0.01200304
7478.00   0.56110561   0.01201919
7480.00   0.55692959   0.01202167
7482.00   0.56078631   0.01201189
7484.00   0.55737150   0.01194823
7486.00   0.55135888   0.01181903
7488.00   0.56141281   0.01169906
7490.00   0.58315730   0.01160566
7492.00   0.59572560   0.01151344
7494.00   0.59380066   0.01144952
7496.00   0.57391679   0.01141966
7498.00   0.56136191   0.01139305
7500.00   0.56678456   0.01136236
7502.00   0.58085108   0.01134199
7504.00   0.57574916   0.01129643
7506.00   0.55323321   0.01124572
7508.00   0.54086006   0.01123765
7510.00   0.54987693   0.01127596
7512.00   0.55914110   0.01129384
7514.00   0.56849086   0.01134295
7516.00   0.56314528   0.01146798
7518.00   0.55472648   0.01177549
7520.00   0.54952770   0.01221642
7522.00   0.54422939   0.01246468
7524.00   0.54225659   0.01260765
7526.00   0.54630661   0.01268544
7528.00   0.55678564   0.01260413
7530.00   0.59620142   0.01229172
7532.00   0.57357681   0.01192337
7534.00   0.57630265   0.01172969
7536.00   0.55944288   0.01159254
7538.00   0.54578912   0.01148764
7540.00   0.56288105   0.01145143
7542.00   0.56723052   0.01144880
7544.00   0.56941456   0.01144108
7546.00   0.56954110   0.01142145
7548.00   0.57083720   0.01140577
7550.00   0.57323945   0.01140366
7552.00   0.57615638   0.01145909
7554.00   0.58121467   0.01155445
7556.00   0.57991052   0.01163652
7558.00   0.56765944   0.01167076
7560.00   0.55652565   0.01166332
7562.00   0.57794929   0.01171260
7564.00   0.57834840   0.01181184
7566.00   0.57373875   0.01197136
7568.00   0.57901198   0.01214882
7570.00   0.58376706   0.01227620
7572.00   0.56632978   0.01228573
7574.00   0.55385292   0.01224786
7576.00   0.55868560   0.01211388
7578.00   0.57642370   0.01186593
7580.00   0.57131004   0.01158720
7582.00   0.57289118   0.01154280
7584.00   0.56570810   0.01166180
7586.00   0.56429106   0.01179476
7588.00   0.57702070   0.01183851
7590.00   0.55693001   0.01184268
7592.00   0.54801995   0.01195015
7594.00   0.54174018   0.01261592
7596.00   0.54376996   0.01420428
7598.00   0.55252028   0.01667874
7600.00   0.50911742   0.01957862
7602.00   0.50492984   0.02185477
7604.00   0.56198651   0.02308114
7606.00   0.59807599   0.02325939
7608.00   0.61270934   0.02250263
7610.00   0.50652355   0.01880639
7612.00   0.47567391   0.01632235
7614.00   0.51173782   0.01570872
7616.00   0.57034892   0.01568681
7618.00   0.56228662   0.01434633
7620.00   0.56879526   0.01405655
7622.00   0.57013744   0.01444144
7624.00   0.56745654   0.01502121
7626.00   0.56594014   0.01556055
7628.00   0.56615144   0.01626846
7630.00   0.56228125   0.01646529
7632.00   0.52786124   0.01628473
7634.00   0.51738095   0.01586244
7636.00   0.53763294   0.01533815
7638.00   0.54909676   0.01484382
7640.00   0.55163610   0.01452049
7642.00   0.55989796   0.01421018
7644.00   0.56264192   0.01388778
7646.00   0.54919899   0.01361890
7648.00   0.53271937   0.01348636
7650.00   0.54281086   0.01327651
7652.00   0.55068123   0.01308472
7654.00   0.55079424   0.01296558
7656.00   0.55203557   0.01290117
7658.00   0.55172849   0.01286600
7660.00   0.55219245   0.01276877
7662.00   0.55116665   0.01266422
7664.00   0.54870582   0.01256867
7666.00   0.54500180   0.01245554
7668.00   0.54957241   0.01222782
7670.00   0.55123430   0.01202491
7672.00   0.55055928   0.01185478
7674.00   0.55268174   0.01173676
7676.00   0.55946171   0.01171575
7678.00   0.54968774   0.01174422
7680.00   0.55024976   0.01169059
7682.00   0.55297065   0.01162408
7684.00   0.54879981   0.01162340
7686.00   0.54413253   0.01167307
7688.00   0.54237044   0.01162776
7690.00   0.53778982   0.01162721
7692.00   0.53607172   0.01168197
7694.00   0.54186100   0.01174973
7696.00   0.53857601   0.01179777
7698.00   0.52839315   0.01179849
7700.00   0.51661026   0.01175814
7702.00   0.51463443   0.01172002
7704.00   0.52638197   0.01175354
7706.00   0.52657253   0.01194946
7708.00   0.51820534   0.01241131
7710.00   0.52707350   0.01310434
7712.00   0.53599560   0.01387680
7714.00   0.51379758   0.01450371
7716.00   0.49547574   0.01461402
7718.00   0.51935607   0.01434667
7720.00   0.53885895   0.01386763
7722.00   0.53513700   0.01327701
7724.00   0.51605076   0.01262308
7726.00   0.51009387   0.01220088
7728.00   0.51222432   0.01200644
7730.00   0.51835465   0.01187193
7732.00   0.51842105   0.01170888
7734.00   0.51045448   0.01159548
7736.00   0.52448404   0.01160016
7738.00   0.52739596   0.01154127
7740.00   0.52329493   0.01142844
7742.00   0.52071720   0.01145111
7744.00   0.52334702   0.01196687
7746.00   0.51016474   0.01290038
7748.00   0.51370060   0.01359351
7750.00   0.52521002   0.01396762
7752.00   0.52626508   0.01411720
7754.00   0.50961053   0.01405546
7756.00   0.49187753   0.01349188
7758.00   0.49203527   0.01287278
7760.00   0.50367045   0.01246554
7762.00   0.51002616   0.01229462
7764.00   0.49900067   0.01201594
7766.00   0.49960652   0.01175504
7768.00   0.53439128   0.01163324
7770.00   0.50739789   0.01166927
7772.00   0.50691712   0.01178743
7774.00   0.53983128   0.01188086
7776.00   0.51196134   0.01203648
7778.00   0.50126982   0.01212528
7780.00   0.49234354   0.01210544
7782.00   0.51950896   0.01202578
7784.00   0.52154607   0.01197447
7786.00   0.50937313   0.01202609
7788.00   0.50931913   0.01236735
7790.00   0.52432972   0.01294343
7792.00   0.53069758   0.01341799
7794.00   0.50126219   0.01360693
7796.00   0.49450842   0.01356670
7798.00   0.51269287   0.01324433
7800.00   0.52987021   0.01268470
7802.00   0.52389324   0.01220410
7804.00   0.49748468   0.01206238
7806.00   0.51040047   0.01218870
7808.00   0.53872359   0.01239122
7810.00   0.54003143   0.01247294
7812.00   0.51118696   0.01232437
7814.00   0.51547760   0.01235930
7816.00   0.51925564   0.01284355
7818.00   0.51899457   0.01349765
7820.00   0.52851611   0.01387211
7822.00   0.53580135   0.01399998
7824.00   0.54655236   0.01392557
7826.00   0.53399605   0.01345522
7828.00   0.51865959   0.01271124
7830.00   0.54058737   0.01209583
7832.00   0.52233303   0.01182882
7834.00   0.50273216   0.01182333
7836.00   0.52697480   0.01199316
7838.00   0.52526444   0.01221577
7840.00   0.53325576   0.01237733
7842.00   0.53072494   0.01243867
7844.00   0.53020656   0.01245077
7846.00   0.53182894   0.01267653
7848.00   0.55442262   0.01321222
7850.00   0.51933581   0.01383623
7852.00   0.54294729   0.01434691
7854.00   0.55015808   0.01471084
7856.00   0.54803145   0.01479460
7858.00   0.54277992   0.01450374
7860.00   0.55524307   0.01390662
7862.00   0.55625325   0.01347382
7864.00   0.54482639   0.01331992
7866.00   0.53065205   0.01334278
7868.00   0.52621102   0.01336080
7870.00   0.53583658   0.01326856
7872.00   0.54944450   0.01328338
7874.00   0.55256200   0.01326082
7876.00   0.54388046   0.01314669
7878.00   0.52972311   0.01297508
7880.00   0.53750908   0.01293176
7882.00   0.52398288   0.01300780
7884.00   0.48490441   0.01313473
7886.00   0.52281129   0.01325513
7888.00   0.53402656   0.01334975
7890.00   0.53623021   0.01347994
7892.00   0.54606616   0.01342004
7894.00   0.55170560   0.01309675
7896.00   0.54780692   0.01260688
7898.00   0.54063171   0.01221729
7900.00   0.53643554   0.01203573
7902.00   0.54115331   0.01192267
7904.00   0.54103613   0.01194446
7906.00   0.53523338   0.01230022
7908.00   0.54155827   0.01323231
7910.00   0.55501401   0.01420568
7912.00   0.54948318   0.01490697
7914.00   0.53686005   0.01543059
7916.00   0.56255025   0.01578020
7918.00   0.54731876   0.01551618
7920.00   0.54125041   0.01477974
7922.00   0.52981508   0.01411301
7924.00   0.52353173   0.01364894
7926.00   0.53542930   0.01329250
7928.00   0.51958603   0.01305347
7930.00   0.51637465   0.01293131
7932.00   0.51198936   0.01282361
7934.00   0.51391798   0.01268566
7936.00   0.52944219   0.01250491
7938.00   0.53581941   0.01217508
7940.00   0.53716213   0.01195325
7942.00   0.54068083   0.01193763
7944.00   0.54027379   0.01209646
7946.00   0.52361196   0.01230022
7948.00   0.51910031   0.01246155
7950.00   0.52214897   0.01249982
7952.00   0.51908165   0.01239515
7954.00   0.51428497   0.01221810
7956.00   0.53053510   0.01212233
7958.00   0.54183614   0.01249610
7960.00   0.52775776   0.01318652
7962.00   0.51133925   0.01383637
7964.00   0.50968087   0.01422163
7966.00   0.52070290   0.01436142
7968.00   0.54003364   0.01403581
7970.00   0.54551691   0.01340672
7972.00   0.53136885   0.01282196
7974.00   0.50931972   0.01258043
7976.00   0.51004553   0.01258091
7978.00   0.51442283   0.01273121
7980.00   0.52454358   0.01282940
7982.00   0.52915567   0.01276713
7984.00   0.52177900   0.01257249
7986.00   0.52044159   0.01248225
7988.00   0.52141893   0.01302055
7990.00   0.52549613   0.01366783
7992.00   0.53072786   0.01411783
7994.00   0.52523500   0.01427836
7996.00   0.51790267   0.01423860
7998.00   0.51807880   0.01366721
8000.00   0.52288413   0.01286153
8002.00   0.52763999   0.01216119
8004.00   0.52226347   0.01178478
8006.00   0.52323931   0.01167841
8008.00   0.52209872   0.01179157
8010.00   0.51192057   0.01196459
8012.00   0.50204009   0.01211784
8014.00   0.51280236   0.01226043
8016.00   0.50629038   0.01227266
8018.00   0.54457450   0.01236940
8020.00   0.52178508   0.01266530
8022.00   0.52196443   0.01309776
8024.00   0.49216050   0.01339762
8026.00   0.49151492   0.01352515
8028.00   0.51588792   0.01351426
8030.00   0.47978938   0.01323154
8032.00   0.46800840   0.01262829
8034.00   0.51293063   0.01205685
8036.00   0.50919855   0.01167813
8038.00   0.53135127   0.01145076
8040.00   0.50316620   0.01132533
8042.00   0.50660408   0.01128326
8044.00   0.50945866   0.01140464
8046.00   0.50374639   0.01156191
8048.00   0.49803093   0.01168918
8050.00   0.49797872   0.01175066
8052.00   0.50176418   0.01175655
8054.00   0.50630629   0.01184230
8056.00   0.51455367   0.01199777
8058.00   0.51808769   0.01215699
8060.00   0.51623237   0.01228041
8062.00   0.51592159   0.01235680
8064.00   0.51642585   0.01232744
8066.00   0.54868460   0.01217732
8068.00   0.52209473   0.01194002
8070.00   0.51587635   0.01168206
8072.00   0.50663692   0.01149705
8074.00   0.51617777   0.01139657
8076.00   0.51783592   0.01136050
8078.00   0.51626503   0.01138008
8080.00   0.51964968   0.01142493
8082.00   0.53220826   0.01144187
8084.00   0.52691555   0.01142401
8086.00   0.51380080   0.01143851
8088.00   0.50370622   0.01148245
8090.00   0.50404757   0.01151666
8092.00   0.50699055   0.01146842
8094.00   0.50048786   0.01146311
8096.00   0.50164360   0.01154766
8098.00   0.51079720   0.01164805
8100.00   0.51404923   0.01167413
8102.00   0.50744998   0.01173472
8104.00   0.50909930   0.01175519
8106.00   0.50738680   0.01173605
8108.00   0.50304496   0.01168833
8110.00   0.50175607   0.01164444
8112.00   0.49692741   0.01156331
8114.00   0.52049637   0.01152436
8116.00   0.52802521   0.01150490
8118.00   0.50793040   0.01147371
8120.00   0.49544755   0.01143368
8122.00   0.51226455   0.01146607
8124.00   0.52318949   0.01149373
8126.00   0.52396572   0.01150966
8128.00   0.51362127   0.01154398
8130.00   0.49446228   0.01171518
8132.00   0.51106745   0.01178705
8134.00   0.51165688   0.01183891
8136.00   0.51063883   0.01191630
8138.00   0.52778208   0.01201486
8140.00   0.52615708   0.01203389
8142.00   0.52605993   0.01208442
8144.00   0.53044403   0.01211070
8146.00   0.53012419   0.01210838
8148.00   0.51992655   0.01210613
8150.00   0.50595051   0.01203921
8152.00   0.52010906   0.01208984
8154.00   0.52116132   0.01208301
8156.00   0.51958084   0.01227432
8158.00   0.54417944   0.01244804
8160.00   0.53414917   0.01243465
8162.00   0.52091491   0.01248158
8164.00   0.50447804   0.01246197
8166.00   0.49680713   0.01261589
8168.00   0.50915462   0.01213470
8170.00   0.52005309   0.01225320
8172.00   0.52417094   0.01229154
8174.00   0.51630849   0.01231033
8176.00   0.50215083   0.01249481
8178.00   0.49689808   0.01296632
8180.00   0.49708462   0.01347631
8182.00   0.49463409   0.01386382
8184.00   0.50598133   0.01408168
8186.00   0.52743691   0.01416867
8188.00   0.51977587   0.01422061
8190.00   0.50170285   0.01437519
8192.00   0.49722970   0.01450282
8194.00   0.49574950   0.01456783
8196.00   0.48558491   0.01453848
8198.00   0.47026306   0.01431891
8200.00   0.46985805   0.01386944
8202.00   0.47981989   0.01337505
8204.00   0.49201530   0.01292519
8206.00   0.50439942   0.01255597
8208.00   0.52421582   0.01227995
8210.00   0.51770848   0.01210100
8212.00   0.50255799   0.01193885
8214.00   0.49608168   0.01179034
8216.00   0.50433278   0.01170603
8218.00   0.50785857   0.01174676
8220.00   0.51022172   0.01187673
8222.00   0.50921381   0.01203234
8224.00   0.50884032   0.01220265
8226.00   0.51302874   0.01241681
8228.00   0.49955970   0.01252358
8230.00   0.48315090   0.01234228
8232.00   0.48095557   0.01212055
8234.00   0.49433866   0.01201344
8236.00   0.50500673   0.01192036
8238.00   0.50519979   0.01176153
8240.00   0.50620592   0.01164276
8242.00   0.50409520   0.01151788
8244.00   0.49352175   0.01137879
8246.00   0.48386547   0.01134303
8248.00   0.48031920   0.01129642
8250.00   0.49439344   0.01132191
8252.00   0.50586993   0.01135934
8254.00   0.49838877   0.01136472
8256.00   0.47267976   0.01141533
8258.00   0.47872901   0.01141361
8260.00   0.48835936   0.01137645
8262.00   0.49111223   0.01132852
8264.00   0.49289972   0.01129534
8266.00   0.51242346   0.01128868
8268.00   0.51959062   0.01141685
8270.00   0.51843929   0.01170428
8272.00   0.51947898   0.01138759
8274.00   0.52724242   0.01213759
8276.00   0.52360857   0.01276624
8278.00   0.50163913   0.01323352
8280.00   0.48538867   0.01383097
8282.00   0.43708062   0.01441151
8284.00   0.51290011   0.01461659
8286.00   0.47187623   0.01462582
8288.00   0.48143619   0.01446879
8290.00   0.47727829   0.01432091
8292.00   0.46065339   0.01431553
8294.00   0.46560937   0.01451235
8296.00   0.48873115   0.01462474
8298.00   0.47657633   0.01455815
8300.00   0.46216261   0.01427234
8302.00   0.46886420   0.01378042
8304.00   0.46009704   0.01317488
8306.00   0.46621150   0.01273316
8308.00   0.47109556   0.01237447
8310.00   0.48115969   0.01216117
8312.00   0.49646485   0.01211474
8314.00   0.48458993   0.01204779
8316.00   0.49435291   0.01188978
8318.00   0.49653548   0.01165708
8320.00   0.48619345   0.01144993
8322.00   0.47552437   0.01137284
8324.00   0.47326833   0.01130977
8326.00   0.47614071   0.01122695
8328.00   0.48015922   0.01115161
8330.00   0.48937762   0.01112226
8332.00   0.50505573   0.01117652
8334.00   0.50218773   0.01116951
8336.00   0.48722363   0.01165527
8338.00   0.46837270   0.01286597
8340.00   0.45728379   0.01439273
8342.00   0.45638064   0.01554857
8344.00   0.46543565   0.01617787
8346.00   0.46965489   0.01656446
8348.00   0.47308856   0.01642250
8350.00   0.47412440   0.01566808
8352.00   0.46920589   0.01464636
8354.00   0.49039009   0.01389752
8356.00   0.49934033   0.01319981
8358.00   0.48210666   0.01258873
8360.00   0.42457917   0.01215610
8362.00   0.44418758   0.01194101
8364.00   0.45691493   0.01180575
8366.00   0.47381270   0.01171046
8368.00   0.47764945   0.01156739
8370.00   0.46348780   0.01133814
8372.00   0.45670909   0.01115387
8374.00   0.44778502   0.01112971
8376.00   0.44114247   0.01129169
8378.00   0.44619590   0.01160889
8380.00   0.46720290   0.01199962
8382.00   0.48185936   0.01219448
8384.00   0.47767848   0.01214040
8386.00   0.45668244   0.01186836
8388.00   0.43515354   0.01148650
8390.00   0.42813003   0.01120016
8392.00   0.42447725   0.01158425
8394.00   0.42848945   0.01257821
8396.00   0.42245108   0.01351797
8398.00   0.41479182   0.01412618
8400.00   0.42983577   0.01449943
8402.00   0.40541589   0.01417001
8404.00   0.38948047   0.01325594
8406.00   0.38771296   0.01227150
8408.00   0.39620408   0.01167924
8410.00   0.40183613   0.01147484
8412.00   0.40826789   0.01154956
8414.00   0.41086254   0.01170734
8416.00   0.40734631   0.01181918
8418.00   0.40112290   0.01179949
8420.00   0.40300763   0.01156750
8422.00   0.40577585   0.01151509
8424.00   0.40318340   0.01232935
8426.00   0.40939707   0.01345799
8428.00   0.42568046   0.01415774
8430.00   0.41084808   0.01458365
8432.00   0.38745615   0.01470420
8434.00   0.37692809   0.01407715
8436.00   0.38112640   0.01290004
8438.00   0.38352257   0.01183560
8440.00   0.38505724   0.01104271
8442.00   0.39052844   0.01051935
8444.00   0.38080269   0.01042859
8446.00   0.37085307   0.01074459
8448.00   0.39461169   0.01122187
8450.00   0.39489549   0.01139497
8452.00   0.38576725   0.01147886
8454.00   0.39083508   0.01148019
8456.00   0.40765744   0.01148293
8458.00   0.40964696   0.01168323
8460.00   0.40884727   0.01216668
8462.00   0.39738730   0.01336336
8464.00   0.38133615   0.01360203
8466.00   0.36627305   0.01384505
8468.00   0.42667484   0.01373626
8470.00   0.43279812   0.01305938
8472.00   0.41282934   0.01227753
8474.00   0.38299632   0.01161073
8476.00   0.40319717   0.01114858
8478.00   0.40146390   0.01115836
8480.00   0.41757166   0.01047508
8482.00   0.42242798   0.01030423
8484.00   0.41071209   0.01027147
8486.00   0.39637598   0.01030450
8488.00   0.40489191   0.01059198
8490.00   0.40627059   0.01084891
8492.00   0.40112475   0.01101097
8494.00   0.39927712   0.01110605
8496.00   0.40955931   0.01121456
8498.00   0.41808435   0.01142224
8500.00   0.42513439   0.01169230
8502.00   0.42748937   0.01194452
8504.00   0.42511767   0.01212864
8506.00   0.41975316   0.01221543
8508.00   0.41950756   0.01202243
8510.00   0.42727265   0.01156861
8512.00   0.43518329   0.01111374
8514.00   0.43297347   0.01082577
8516.00   0.41695362   0.01063218
8518.00   0.41888547   0.01040602
8520.00   0.42297760   0.01035330
8522.00   0.42550668   0.01039228
8524.00   0.43016389   0.01039043
8526.00   0.44600260   0.01031128
8528.00   0.43353099   0.01027471
8530.00   0.43522197   0.01029405
8532.00   0.44252709   0.01036398
8534.00   0.44363052   0.01045946
8536.00   0.44469610   0.01052536
8538.00   0.44010746   0.01056893
8540.00   0.42653355   0.01058025
8542.00   0.40846375   0.01062741
8544.00   0.39723104   0.01078082
8546.00   0.40882802   0.01090511
8548.00   0.40808877   0.01096994
8550.00   0.41528723   0.01102131
8552.00   0.42862779   0.01098005
8554.00   0.42765039   0.01068372
8556.00   0.41665706   0.01046440
8558.00   0.42205441   0.01035327
8560.00   0.42545363   0.01025584
8562.00   0.42214543   0.01016437
8564.00   0.43129334   0.01018641
8566.00   0.42355695   0.01031796
8568.00   0.42422780   0.01025128
8570.00   0.41908267   0.01015632
8572.00   0.40881172   0.01015625
8574.00   0.41602701   0.01011892
8576.00   0.41857496   0.01016826
8578.00   0.42837033   0.01020066
8580.00   0.42787492   0.01022481
8582.00   0.41314921   0.01025563
8584.00   0.41657519   0.01027366
8586.00   0.42929316   0.01032991
8588.00   0.43439239   0.01039592
8590.00   0.43880302   0.01046408
8592.00   0.44281611   0.01052489
8594.00   0.43380055   0.01052110
8596.00   0.43586004   0.01048418
8598.00   0.43511629   0.01043282
8600.00   0.42019182   0.01032338
8602.00   0.39421219   0.01013591
8604.00   0.38868940   0.01003095
8606.00   0.40398523   0.01000495
8608.00   0.41581997   0.01006923
8610.00   0.42077702   0.01021731
8612.00   0.42613012   0.01041773
8614.00   0.42743278   0.01062285
8616.00   0.42581546   0.01088541
8618.00   0.42695925   0.01114488
8620.00   0.43256736   0.01141733
8622.00   0.44130194   0.01176402
8624.00   0.42699289   0.01201731
8626.00   0.42560568   0.01223562
8628.00   0.43406180   0.01243101
8630.00   0.44505325   0.01256457
8632.00   0.45346105   0.01255355
8634.00   0.45100614   0.01246270
8636.00   0.44480404   0.01226943
8638.00   0.44225705   0.01198693
8640.00   0.44122273   0.01166003
8642.00   0.42412457   0.01135706
8644.00   0.41031155   0.01112399
8646.00   0.39588094   0.01103671
8648.00   0.38370034   0.01115004
8650.00   0.37969682   0.01143507
8652.00   0.38936558   0.01175653
8654.00   0.40647012   0.01206555
8656.00   0.43851888   0.01231866
8658.00   0.44192573   0.01249074
8660.00   0.41794693   0.01257884
8662.00   0.45956323   0.01257916
8664.00   0.46102905   0.01252008
8666.00   0.44941908   0.01244472
8668.00   0.45293176   0.01235997
8670.00   0.47840074   0.01224754
8672.00   0.50191700   0.01209299
8674.00   0.48475608   0.01190676
8676.00   0.47785953   0.01175926
8678.00   0.49274349   0.01165063
8680.00   0.48974824   0.01148560
8682.00   0.48102364   0.01129166
8684.00   0.48381677   0.01117613
8686.00   0.50004578   0.01111502
8688.00   0.51281637   0.01104949
8690.00   0.49431533   0.01092441
8692.00   0.49103972   0.01086862
8694.00   0.49720198   0.01082730
8696.00   0.50612843   0.01081644
8698.00   0.51200444   0.01082923
8700.00   0.50652063   0.01079200
8702.00   0.50511825   0.01082716
8704.00   0.51128173   0.01085699
8706.00   0.52028072   0.01084624
8708.00   0.52277583   0.01079553
8710.00   0.52453697   0.01077295
8712.00   0.51992851   0.01072123
8714.00   0.51190984   0.01068547
8716.00   0.50305212   0.01066252
8718.00   0.50093251   0.01064806
8720.00   0.51428801   0.01069408
8722.00   0.51870173   0.01068825
8724.00   0.52211553   0.01070765
8726.00   0.52459830   0.01075413
8728.00   0.52458495   0.01075546
8730.00   0.52489841   0.01071265
8732.00   0.52051640   0.01072027
8734.00   0.51933789   0.01075428
8736.00   0.52375609   0.01078335
8738.00   0.53212774   0.01080854
8740.00   0.53878301   0.01086334
8742.00   0.53023881   0.01085930
8744.00   0.52806395   0.01082676
8746.00   0.53897262   0.01081392
8748.00   0.53615206   0.01083448
8750.00   0.52777725   0.01083340
8752.00   0.52219152   0.01103178
8754.00   0.52291518   0.01154807
8756.00   0.52634847   0.01231287
8758.00   0.51422316   0.01300919
8760.00   0.50465298   0.01388386
8762.00   0.50109756   0.01472211
8764.00   0.50548118   0.01520372
8766.00   0.50636125   0.01514487
8768.00   0.47987908   0.01487961
8770.00   0.45970181   0.01479298
8772.00   0.46164376   0.01481538
8774.00   0.47456649   0.01486697
8776.00   0.47863975   0.01489253
8778.00   0.48205879   0.01490153
8780.00   0.48251078   0.01455147
8782.00   0.48969832   0.01389503
8784.00   0.50058883   0.01315973
8786.00   0.50542748   0.01267398
8788.00   0.50787961   0.01236131
8790.00   0.51960623   0.01220751
8792.00   0.52750897   0.01213035
8794.00   0.52264959   0.01198225
8796.00   0.50681126   0.01157877
8798.00   0.50046605   0.01117898
8800.00   0.50049520   0.01091653
8802.00   0.51144677   0.01083135
8804.00   0.52759910   0.01087077
8806.00   0.51905775   0.01090069
8808.00   0.52033836   0.01083986
8810.00   0.51248813   0.01079290
8812.00   0.51046765   0.01076335
8814.00   0.52404875   0.01072858
8816.00   0.53330666   0.01070573
8818.00   0.53597808   0.01110871
8820.00   0.51051205   0.01263488
8822.00   0.49335983   0.01463044
8824.00   0.51752049   0.01623688
8826.00   0.49983948   0.01718639
8828.00   0.52158833   0.01788378
8830.00   0.51076460   0.01789007
8832.00   0.50693333   0.01722057
8834.00   0.46502665   0.01625134
8836.00   0.49480543   0.01552988
8838.00   0.49413544   0.01525017
8840.00   0.48526978   0.01446009
8842.00   0.48571712   0.01312859
8844.00   0.50176382   0.01254559
8846.00   0.53905708   0.01218776
8848.00   0.51403117   0.01214143
8850.00   0.51415944   0.01212490
8852.00   0.51311892   0.01192598
8854.00   0.50228703   0.01158420
8856.00   0.52989531   0.01134191
8858.00   0.54537767   0.01125117
8860.00   0.52344030   0.01145453
8862.00   0.51246798   0.01191458
8864.00   0.51400065   0.01233527
8866.00   0.51797968   0.01258763
8868.00   0.52969593   0.01273558
8870.00   0.53411674   0.01264412
8872.00   0.51959050   0.01222983
8874.00   0.50611138   0.01169389
8876.00   0.52164328   0.01130645
8878.00   0.51487744   0.01178940
8880.00   0.49218273   0.01303501
8882.00   0.48697281   0.01443326
8884.00   0.49193293   0.01542604
8886.00   0.45835385   0.01622592
8888.00   0.44851649   0.01613190
8890.00   0.42752382   0.01509026
8892.00   0.49614727   0.01366831
8894.00   0.54950863   0.01281738
8896.00   0.52812415   0.01250716
8898.00   0.53754812   0.01261083
8900.00   0.53271943   0.01288675
8902.00   0.51736730   0.01308690
8904.00   0.51514852   0.01315185
8906.00   0.50487310   0.01291658
8908.00   0.48143196   0.01254752
8910.00   0.50128078   0.01237953
8912.00   0.46200994   0.01278019
8914.00   0.47689468   0.01374794
8916.00   0.49997160   0.01483611
8918.00   0.50630295   0.01570869
8920.00   0.48444933   0.01614434
8922.00   0.47160017   0.01610598
8924.00   0.48709455   0.01522199
8926.00   0.48664269   0.01406622
8928.00   0.48343784   0.01301872
8930.00   0.50112325   0.01226460
8932.00   0.51110214   0.01170280
8934.00   0.50934124   0.01143253
8936.00   0.50553447   0.01154611
8938.00   0.50407481   0.01195342
8940.00   0.50503165   0.01244090
8942.00   0.51057506   0.01276722
8944.00   0.50559354   0.01298795
8946.00   0.50557351   0.01290257
8948.00   0.51513410   0.01262966
8950.00   0.55029798   0.01260827
8952.00   0.50634563   0.01357468
8954.00   0.50836331   0.01459837
8956.00   0.50851756   0.01546405
8958.00   0.49496114   0.01604776
8960.00   0.47601977   0.01621587
8962.00   0.49001405   0.01547897
8964.00   0.52391589   0.01448110
8966.00   0.51233172   0.01354281
8968.00   0.48626435   0.01282532
8970.00   0.46657750   0.01225032
8972.00   0.46861210   0.01182103
8974.00   0.48092857   0.01155202
8976.00   0.47881931   0.01136626
8978.00   0.46028611   0.01127436
8980.00   0.48301029   0.01150068
8982.00   0.49246523   0.01210666
8984.00   0.48742154   0.01278197
8986.00   0.47580343   0.01326847
8988.00   0.46810180   0.01339315
8990.00   0.44212338   0.01303793
8992.00   0.44054461   0.01268242
8994.00   0.46606255   0.01303301
8996.00   0.48350945   0.01391920
8998.00   0.46206748   0.01468935
9000.00   0.49344778   0.01501873
9002.00   0.48777619   0.01511429
9004.00   0.47805178   0.01489446
9006.00   0.48464882   0.01432360
9008.00   0.50207144   0.01347673
9010.00   0.48941687   0.01277475
9012.00   0.49685869   0.01227491
9014.00   0.50820482   0.01199029
9016.00   0.50305510   0.01184268
9018.00   0.47852445   0.01169701
9020.00   0.47640520   0.01151433
9022.00   0.48581031   0.01144330
9024.00   0.48860067   0.01140582
9026.00   0.47949895   0.01130255
9028.00   0.47368613   0.01109590
9030.00   0.47810754   0.01108855
9032.00   0.47965428   0.01115693
9034.00   0.47287712   0.01121072
9036.00   0.46210626   0.01122516
9038.00   0.46427083   0.01130130
9040.00   0.47664189   0.01134651
9042.00   0.48976034   0.01145956
9044.00   0.50015438   0.01170029
9046.00   0.50314683   0.01202672
9048.00   0.49450308   0.01218698
9050.00   0.47882879   0.01223804
9052.00   0.46739626   0.01213211
9054.00   0.47179756   0.01186607
9056.00   0.49574462   0.01151280
9058.00   0.48341396   0.01132671
9060.00   0.47083330   0.01120550
9062.00   0.47315922   0.01116625
9064.00   0.48055604   0.01120627
9066.00   0.47010916   0.01130561
9068.00   0.48947963   0.01146578
9070.00   0.49533483   0.01149507
9072.00   0.48702148   0.01141817
9074.00   0.47755760   0.01133844
9076.00   0.48674536   0.01136668
9078.00   0.50188518   0.01143634
9080.00   0.49748227   0.01136440
9082.00   0.48547786   0.01129442
9084.00   0.48155102   0.01135406
9086.00   0.49188241   0.01146665
9088.00   0.48278046   0.01151890
9090.00   0.48122418   0.01155139
9092.00   0.48774558   0.01160711
9094.00   0.49018660   0.01171836
9096.00   0.47549886   0.01184625
9098.00   0.46792930   0.01197293
9100.00   0.47421598   0.01211228
9102.00   0.48394305   0.01222427
9104.00   0.48561552   0.01222587
9106.00   0.48808032   0.01201046
9108.00   0.47477925   0.01163299
9110.00   0.48057020   0.01133764
9112.00   0.50094754   0.01123523
9114.00   0.50546306   0.01125549
9116.00   0.48562208   0.01115426
9118.00   0.46951815   0.01105289
9120.00   0.46854290   0.01097548
9122.00   0.47895315   0.01096873
9124.00   0.48361534   0.01111131
9126.00   0.47387809   0.01124164
9128.00   0.47107610   0.01130643
9130.00   0.47199279   0.01135147
9132.00   0.46957421   0.01138050
9134.00   0.45394969   0.01131930
9136.00   0.45062429   0.01105820
9138.00   0.44719467   0.01094301
9140.00   0.45903739   0.01099689
9142.00   0.48732719   0.01111822
9144.00   0.49262333   0.01116912
9146.00   0.48929238   0.01130550
9148.00   0.48941699   0.01150387
9150.00   0.49055058   0.01173713
9152.00   0.48663515   0.01193371
9154.00   0.45286581   0.01189104
9156.00   0.45222101   0.01183242
9158.00   0.46721530   0.01185045
9160.00   0.47989625   0.01185762
9162.00   0.48107627   0.01171988
9164.00   0.48812008   0.01151595
9166.00   0.49950445   0.01146587
9168.00   0.50415057   0.01151535
9170.00   0.49596676   0.01157687
9172.00   0.47247058   0.01155791
9174.00   0.46365103   0.01145546
9176.00   0.46908048   0.01127372
9178.00   0.48186573   0.01119485
9180.00   0.49310571   0.01126136
9182.00   0.49733552   0.01132435
9184.00   0.48862422   0.01115454
9186.00   0.47743663   0.01100008
9188.00   0.47082162   0.01096841
9190.00   0.46907154   0.01101468
9192.00   0.46587485   0.01094809
9194.00   0.46913785   0.01078976
9196.00   0.46648985   0.01061625
9198.00   0.46202096   0.01054077
9200.00   0.46096230   0.01058909
9202.00   0.45154586   0.01056565
9204.00   0.44941401   0.01055642
9206.00   0.46235079   0.01058964
9208.00   0.47743025   0.01068639
9210.00   0.47840598   0.01083160
9212.00   0.48159292   0.01097224
9214.00   0.46379533   0.01103022
9216.00   0.46911764   0.01112673
9218.00   0.49325830   0.01129356
9220.00   0.50295031   0.01148484
9222.00   0.48071185   0.01152384
9224.00   0.50151718   0.01152413
9226.00   0.51072234   0.01149029
9228.00   0.49988019   0.01142841
9230.00   0.50280368   0.01135989
9232.00   0.49302012   0.01115977
9234.00   0.48255128   0.01101310
9236.00   0.47404617   0.01098654
9238.00   0.47129089   0.01105111
9240.00   0.47570825   0.01110062
9242.00   0.48424849   0.01107372
9244.00   0.48898327   0.01105514
9246.00   0.50111902   0.01109349
9248.00   0.51518703   0.01114824
9250.00   0.49559096   0.01109038
9252.00   0.47005102   0.01100172
9254.00   0.46608582   0.01095347
9256.00   0.47798684   0.01092152
9258.00   0.48708728   0.01086296
9260.00   0.47579360   0.01079538
9262.00   0.46110347   0.01073036
9264.00   0.46465662   0.01069265
9266.00   0.47398061   0.01069943
9268.00   0.47479513   0.01076388
9270.00   0.48154795   0.01091105
9272.00   0.48610309   0.01104499
9274.00   0.48699668   0.01113271
9276.00   0.48065409   0.01119597
9278.00   0.46943489   0.01131997
9280.00   0.45401579   0.01162994
9282.00   0.46350709   0.01174477
9284.00   0.46873224   0.01180169
9286.00   0.46141538   0.01191625
9288.00   0.45614371   0.01211939
9290.00   0.45502964   0.01225026
9292.00   0.47194239   0.01245893
9294.00   0.48199868   0.01264158
9296.00   0.47472632   0.01280617
9298.00   0.46206874   0.01315522
9300.00   0.46597886   0.01440492
9302.00   0.45267105   0.01599753
9304.00   0.43919486   0.01790536
9306.00   0.44296306   0.02025836
9308.00   0.45124552   0.02323093
9310.00   0.45620370   0.02535377
9312.00   0.43677962   0.02660339
9314.00   0.42943022   0.02740161
9316.00   0.41968793   0.02806738
9318.00   0.43976694   0.02832063
9320.00   0.42699373   0.02840913
9322.00   0.41074666   0.02802255
9324.00   0.40564939   0.02691329
9326.00   0.40948635   0.02513255
9328.00   0.38659436   0.02359780
9330.00   0.41379136   0.02263992
9332.00   0.42312086   0.02220374
9334.00   0.39367914   0.02204499
9336.00   0.34635022   0.02196258
9338.00   0.39202511   0.02274097
9340.00   0.38942456   0.02282017
9342.00   0.35586864   0.02095690
9344.00   0.33279791   0.01772885
9346.00   0.36919290   0.01628444
9348.00   0.37715462   0.01645871
9350.00   0.43202272   0.01786497
9352.00   0.47252309   0.01882902
9354.00   0.46959335   0.01854252
9356.00   0.45224077   0.01727232
9358.00   0.43372232   0.01653099
9360.00   0.41155037   0.01610512
9362.00   0.42006525   0.01627498
9364.00   0.46280354   0.01712043
9366.00   0.47632462   0.01804147
9368.00   0.39825010   0.02201402
9370.00   0.41839159   0.02878560
9372.00   0.39799744   0.03503587
9374.00   0.34990990   0.03910141
9376.00   0.32385802   0.04184348
9378.00   0.40162331   0.04109830
9380.00   0.37733087   0.03657624
9382.00   0.36417434   0.02999431
9384.00   0.33934239   0.02474009
9386.00   0.39105037   0.02077677
9388.00   0.42235738   0.01777230
9390.00   0.42922428   0.01575506
9392.00   0.44153234   0.01482480
9394.00   0.48439100   0.01498518
9396.00   0.46990952   0.01564911
9398.00   0.45898163   0.01571506
9400.00   0.44456571   0.01557628
9402.00   0.43326414   0.01556257
9404.00   0.44157499   0.01572191
9406.00   0.42287710   0.01544655
9408.00   0.42957890   0.01491724
9410.00   0.44108880   0.01450915
9412.00   0.43333670   0.01469436
9414.00   0.42154691   0.01591011
9416.00   0.42521539   0.01717602
9418.00   0.42807618   0.01804378
9420.00   0.42209297   0.01882864
9422.00   0.41423804   0.01964732
9424.00   0.45531771   0.01996260
9426.00   0.42759663   0.01862379
9428.00   0.37743899   0.01661238
9430.00   0.36439961   0.01544467
9432.00   0.41430727   0.01673702
9434.00   0.47683832   0.02063136
9436.00   0.49605206   0.02501121
9438.00   0.43739936   0.02762396
9440.00   0.35599801   0.02784487
9442.00   0.34028050   0.02579180
9444.00   0.36231583   0.02266268
9446.00   0.37653109   0.02026378
9448.00   0.40210509   0.01905700
9450.00   0.40912354   0.01932285
9452.00   0.48684362   0.02090280
9454.00   0.47496155   0.02285517
9456.00   0.44684619   0.02360693
9458.00   0.42981216   0.02359783
9460.00   0.42050764   0.02302054
9462.00   0.39002517   0.02162564
9464.00   0.40976593   0.01972001
9466.00   0.42053261   0.01815474
9468.00   0.41450369   0.01772849
9470.00   0.40614218   0.01884514
9472.00   0.42215383   0.02127049
9474.00   0.46441263   0.02308542
9476.00   0.36893284   0.02467619
9478.00   0.39071894   0.02533474
9480.00   0.35405517   0.02432580
9482.00   0.38132793   0.02103989
9484.00   0.37127784   0.01836715
9486.00   0.38744843   0.01686413
9488.00   0.42377537   0.01658313
9490.00   0.45469654   0.01696939
9492.00   0.48065445   0.01742348
9494.00   0.45980310   0.01773351
9496.00   0.43696505   0.01871459
9498.00   0.41902563   0.01965566
9500.00   0.38308722   0.01948051
9502.00   0.32285345   0.01873025
9504.00   0.35469726   0.01845735
9506.00   0.41542643   0.01779846
9508.00   0.45329666   0.01676391
9510.00   0.45669872   0.01639725
9512.00   0.50393260   0.01707979
9514.00   0.48224530   0.01730483
9516.00   0.46926451   0.01720142
9518.00   0.44493398   0.01715128
9520.00   0.43306994   0.01745295
9522.00   0.42684522   0.01760641
9524.00   0.42265582   0.01725943
9526.00   0.41724867   0.01653810
9528.00   0.41165903   0.01577045
9530.00   0.40009314   0.01526965
9532.00   0.40485206   0.01520387
9534.00   0.41337219   0.01532560
9536.00   0.43553197   0.01553770
9538.00   0.45957938   0.01577000
9540.00   0.43855083   0.01586414
9542.00   0.43896005   0.01569457
9544.00   0.45054981   0.01574760
9546.00   0.44698015   0.01624243
9548.00   0.42904112   0.01717159
9550.00   0.43564609   0.01837588
9552.00   0.40834880   0.01901394
9554.00   0.38349262   0.01890173
9556.00   0.38938972   0.01822198
9558.00   0.42873624   0.01763447
9560.00   0.40399075   0.01878221
9562.00   0.40796542   0.02053435
9564.00   0.40745488   0.02168164
9566.00   0.38999811   0.02186899
9568.00   0.35774300   0.02134423
9570.00   0.39009619   0.02017592
9572.00   0.38744640   0.01858539
9574.00   0.38317847   0.01714187
9576.00   0.40112078   0.01627320
9578.00   0.43395516   0.01589321
9580.00   0.43583018   0.01535219
9582.00   0.42792770   0.01503683
9584.00   0.43160388   0.01521728
9586.00   0.45156738   0.01573488
9588.00   0.45703790   0.01586605
9590.00   0.44257906   0.01549403
9592.00   0.43121511   0.01518864
9594.00   0.42390960   0.01499850
9596.00   0.41907433   0.01477665
9598.00   0.42009646   0.01444618
9600.00   0.42297277   0.01454588
9602.00   0.42876807   0.01501940
9604.00   0.43466565   0.01548628
9606.00   0.43413335   0.01558984
9608.00   0.42565125   0.01549020
9610.00   0.41500759   0.01541092
9612.00   0.38311464   0.01533153
9614.00   0.42100233   0.01540775
9616.00   0.46382749   0.01581644
9618.00   0.46033555   0.01632124
9620.00   0.41490757   0.01670183
9622.00   0.42528641   0.01682708
9624.00   0.43082488   0.01646361
9626.00   0.41540879   0.01541849
9628.00   0.44390315   0.01490554
9630.00   0.45784539   0.01481699
9632.00   0.45660490   0.01479472
9634.00   0.44847521   0.01465473
9636.00   0.44050592   0.01456650
9638.00   0.45478752   0.01449140
9640.00   0.44553575   0.01431126
9642.00   0.43414608   0.01420484
9644.00   0.44087633   0.01425987
9646.00   0.44302773   0.01431849
9648.00   0.45725754   0.01434051
9650.00   0.46353716   0.01431081
9652.00   0.45285964   0.01430372
9654.00   0.43141362   0.01436843
9656.00   0.44225624   0.01439330
9658.00   0.45508114   0.01454786
9660.00   0.45181412   0.01483539
9662.00   0.44371489   0.01524498
9664.00   0.44578913   0.01570726
9666.00   0.44546640   0.01596566
9668.00   0.42770901   0.01589609
9670.00   0.40903085   0.01557916
9672.00   0.40286550   0.01525716
9674.00   0.41277167   0.01527091
9676.00   0.43698677   0.01574548
9678.00   0.43895963   0.01613024
9680.00   0.42907232   0.01627615
9682.00   0.41735202   0.01624955
9684.00   0.40494576   0.01623838
9686.00   0.42893854   0.01601045
9688.00   0.44021249   0.01544487
9690.00   0.43637165   0.01503537
9692.00   0.43064699   0.01522253
9694.00   0.44350985   0.01606479
9696.00   0.45543188   0.01675617
9698.00   0.45863691   0.01706967
9700.00   0.44280782   0.01705992
9702.00   0.41908139   0.01677889
9704.00   0.43017599   0.01603566
9706.00   0.42758375   0.01561727
9708.00   0.43041977   0.01544754
9710.00   0.43406785   0.01550644
9712.00   0.43444645   0.01588969
9714.00   0.44662297   0.01695197
9716.00   0.44494063   0.01759942
9718.00   0.43827754   0.01804904
9720.00   0.42477947   0.01834485
9722.00   0.40820894   0.01836324
9724.00   0.37861660   0.01753223
9726.00   0.41657948   0.01656290
9728.00   0.42310458   0.01598041
9730.00   0.43935150   0.01598551
9732.00   0.47008047   0.01634163
9734.00   0.46333438   0.01673209
9736.00   0.44094804   0.01683917
9738.00   0.42149708   0.01674148
9740.00   0.41359764   0.01657688
9742.00   0.41029504   0.01648200
9744.00   0.42027259   0.01628303
9746.00   0.43238905   0.01594269
9748.00   0.44413427   0.01550679
9750.00   0.45208973   0.01506757
9752.00   0.44879007   0.01473201
9754.00   0.43272272   0.01452079
9756.00   0.41810781   0.01437433
9758.00   0.41732857   0.01426727
9760.00   0.42560160   0.01416014
9762.00   0.41857636   0.01395483
9764.00   0.41922167   0.01378176
9766.00   0.42377159   0.01365105
9768.00   0.42201304   0.01353824
9770.00   0.41561291   0.01345360
9772.00   0.43946972   0.01353106
9774.00   0.43982193   0.01356924
9776.00   0.43065238   0.01353620
9778.00   0.42322215   0.01347764
9780.00   0.42238656   0.01353235
9782.00   0.42648178   0.01409161
9784.00   0.43741044   0.01551582
9786.00   0.44422889   0.01712789
9788.00   0.43479896   0.01848751
9790.00   0.41007471   0.01946455
9792.00   0.42091048   0.02013415
9794.00   0.41608074   0.02017272
9796.00   0.40175727   0.01972480
9798.00   0.39677441   0.01908725
9800.00   0.42001447   0.01864339
9802.00   0.38963136   0.01796496
9804.00   0.39671329   0.01722817
9806.00   0.42545646   0.01676504
9808.00   0.44395119   0.01667779
9810.00   0.41884768   0.01658173
9812.00   0.41069254   0.01642526
9814.00   0.42344147   0.01624848
9816.00   0.44418439   0.01596278
9818.00   0.45295385   0.01555612
9820.00   0.42088237   0.01525399
9822.00   0.41041467   0.01513986
9824.00   0.41011241   0.01501442
9826.00   0.41277018   0.01485290
9828.00   0.41785863   0.01472963
9830.00   0.43274334   0.01479830
9832.00   0.44068962   0.01469838
9834.00   0.44227868   0.01446621
9836.00   0.44096607   0.01424973
9838.00   0.43304792   0.01422058
9840.00   0.42987424   0.01447766
9842.00   0.43452591   0.01516606
9844.00   0.42358625   0.01595472
9846.00   0.40530825   0.01659742
9848.00   0.41175285   0.01696398
9850.00   0.41025555   0.01697950
9852.00   0.40228045   0.01655708
9854.00   0.40385398   0.01590459
9856.00   0.41139561   0.01527524
9858.00   0.40767813   0.01486791
9860.00   0.41112071   0.01468094
9862.00   0.41424677   0.01462051
9864.00   0.41183177   0.01562730
9866.00   0.40241119   0.01785557
9868.00   0.37407908   0.02015914
9870.00   0.37992483   0.02172479
9872.00   0.39408484   0.02287878
9874.00   0.39974979   0.02305927
9876.00   0.39537680   0.02186818
9878.00   0.40207717   0.02003714
9880.00   0.39685544   0.01873914
9882.00   0.40691528   0.01771791
9884.00   0.41933921   0.01698865
9886.00   0.40815365   0.01677229
9888.00   0.39968538   0.01737750
9890.00   0.40172619   0.01810816
9892.00   0.38030529   0.01873762
9894.00   0.42539304   0.01912934
9896.00   0.42542905   0.01922781
9898.00   0.42245540   0.01890795
9900.00   0.40733084   0.01803233
9902.00   0.40660137   0.01704985
9904.00   0.41491443   0.01647529
9906.00   0.39975905   0.01673838
9908.00   0.40955514   0.01868881
9910.00   0.44186357   0.02096877
9912.00   0.45411962   0.02269972
9914.00   0.42708799   0.02368038
9916.00   0.39457145   0.02426828
9918.00   0.39543599   0.02343696
9920.00   0.40625715   0.02180118
9922.00   0.41349250   0.02008586
9924.00   0.44472533   0.01887118
9926.00   0.42595255   0.01801762
9928.00   0.41485509   0.01748104
9930.00   0.41143408   0.01710796
9932.00   0.45320225   0.01705504
9934.00   0.45562148   0.01759371
9936.00   0.41548851   0.01886196
9938.00   0.41808015   0.02098697
9940.00   0.42684051   0.02383210
9942.00   0.43764836   0.02652432
9944.00   0.44896135   0.02823887
9946.00   0.42492148   0.02869497
9948.00   0.37960085   0.02872333
9950.00   0.36206195   0.02853328
9952.00   0.37697381   0.02835919
9954.00   0.38662297   0.02844045
9956.00   0.40524033   0.02919010
9958.00   0.39175850   0.02976227
9960.00   0.40304825   0.02958824
9962.00   0.36704469   0.02866075
9964.00   0.40418291   0.02753947
9966.00   0.41363567   0.02612848
9968.00   0.41050467   0.02484085
9970.00   0.39768633   0.02388225
9972.00   0.39204746   0.02325456
9974.00   0.41867414   0.02273813
9976.00   0.40408775   0.02194083
9978.00   0.39282206   0.02104963
9980.00   0.39414591   0.02029042
9982.00   0.40490970   0.01975044
9984.00   0.39381945   0.01915039
9986.00   0.40076801   0.01866252
9988.00   0.41262239   0.01830319
9990.00   0.41863579   0.01805643
9992.00   0.41550550   0.01796058
9994.00   0.42594534   0.01837619
9996.00   0.40744925   0.01873490
9998.00   0.38962245   0.01909546
10000.00   0.39063063   0.01941852
10002.00   0.37796599   0.01976970
10004.00   0.45291188   0.02057372
10006.00   0.46163976   0.02408805
10008.00   0.44102988   0.02782262
10010.00   0.40807354   0.03070004
10012.00   0.42615271   0.03265451
10014.00   0.38679817   0.03370792
10016.00   0.35662565   0.03275968
10018.00   0.33946672   0.03099589
10020.00   0.34946105   0.02953412
10022.00   0.35240933   0.02884151
10024.00   0.32116085   0.02819895
10026.00   0.36928695   0.02771131
10028.00   0.39191344   0.02688531
10030.00   0.40699917   0.02551307
10032.00   0.43005502   0.02411983
10034.00   0.45368075   0.02319880
10036.00   0.38571382   0.02280876
10038.00   0.36974531   0.02272487
10040.00   0.37240130   0.02268415
10042.00   0.36523250   0.02266993
10044.00   0.36384040   0.02251837
10046.00   0.36932135   0.02215267
10048.00   0.36651850   0.02160073
10050.00   0.35176536   0.02104612
10052.00   0.35901585   0.02104026
10054.00   0.40958041   0.02192156
10056.00   0.43252322   0.02299268
10058.00   0.41315785   0.02388256
10060.00   0.38443413   0.02450360
10062.00   0.41457027   0.02511195
10064.00   0.42547578   0.02520541
10066.00   0.41370705   0.02499171
10068.00   0.38994133   0.02467137
10070.00   0.36603966   0.02446192
10072.00   0.37754428   0.02404997
10074.00   0.41939750   0.02487927
10076.00   0.47175604   0.02695539
10078.00   0.45171499   0.02944251
10080.00   0.42594397   0.03125407
10082.00   0.38648018   0.03262455
10084.00   0.39150906   0.03309962
10086.00   0.42329603   0.03211475
10088.00   0.27918756   0.02984940
10090.00   0.33899730   0.02798358
10092.00   0.39264652   0.02671419
10094.00   0.42703775   0.02596132
10096.00   0.37739486   0.02602922
10098.00   0.35719940   0.02690650
10100.00   0.39536911   0.02787665
10102.00   0.39732695   0.02847823
10104.00   0.42610383   0.02885905
10106.00   0.40736070   0.02873929
10108.00   0.39575025   0.02787359
10110.00   0.37962359   0.02686046
10112.00   0.40838036   0.02600738
10114.00   0.40370801   0.02580948
10116.00   0.39059547   0.02718672
10118.00   0.41878423   0.03052021
10120.00   0.45074594   0.03399703
10122.00   0.43091729   0.03646613
10124.00   0.40922678   0.03812120
10126.00   0.38957950   0.03855224
10128.00   0.34623516   0.03698661
10130.00   0.30072564   0.03467092
10132.00   0.41651285   0.03277654
10134.00   0.40203694   0.03135881
10136.00   0.40167141   0.03033019
10138.00   0.40150523   0.02977213
10140.00   0.38932043   0.02948760
10142.00   0.39462945   0.02958982
10144.00   0.40216622   0.03014675
10146.00   0.39996815   0.03115474
10148.00   0.40186071   0.03258198
10150.00   0.39390633   0.03374711
10152.00   0.37208781   0.03468938
10154.00   0.39471114   0.03515813
10156.00   0.42288631   0.03501779
10158.00   0.36759514   0.03436855
10160.00   0.41133332   0.03378621
10162.00   0.42273569   0.03383814
10164.00   0.41561952   0.03559866
10166.00   0.38544640   0.03927487
10168.00   0.39234442   0.04269695
10170.00   0.40008858   0.04499688
10172.00   0.41079801   0.04656592
10174.00   0.40976769   0.04692012
10176.00   0.34032673   0.04528667
10178.00   0.35470706   0.04290408
10180.00   0.37043941   0.04136792
10182.00   0.40754616   0.04120537
10184.00   0.38496804   0.04221492
10186.00   0.34081668   0.04366650
10188.00   0.30750653   0.04465314
10190.00   0.31432161   0.04513012
10192.00   0.33904839   0.04471222
10194.00   0.42541274   0.04345696
10196.00   0.36748588   0.04206086
10198.00   0.38198206   0.04164747
10200.00   0.39118627   0.04168332
10202.00   0.37883019   0.04293061
10204.00   0.40457493   0.04517827
10206.00   0.44883794   0.04894156
10208.00   0.42434457   0.05104685
10210.00   0.39332458   0.05236674
10212.00   0.30652595   0.05260812
10214.00   0.25293326   0.05135590
10216.00   0.28260815   0.04865144
10218.00   0.32821688   0.04712818
10220.00   0.38189015   0.04659744
10222.00   0.37623560   0.04713142
10224.00   0.32217380   0.04854122
10226.00   0.27353525   0.05015733
10228.00   0.29033086   0.05041007
10230.00   0.30946574   0.04984351
10232.00   0.36641771   0.04875736
10234.00   0.31898412   0.04724688
10236.00   0.44788986   0.04551716
10238.00   0.30507237   0.04374623
10240.00   0.32230088   0.04292302
