# File created by shivutils (I.Shivvers)
# wl(A)   flm    er(optional)
3440.00   0.22321507   0.03373895
3442.00   0.23288369   0.03295624
3444.00   0.19130562   0.03212681
3446.00   0.16667815   0.03186821
3448.00   0.20114356   0.03342538
3450.00   0.20989385   0.03515043
3452.00   0.21457133   0.03653239
3454.00   0.29508615   0.03657552
3456.00   0.21679455   0.03534579
3458.00   0.22444247   0.03494903
3460.00   0.14125516   0.03391525
3462.00   0.19340448   0.03342174
3464.00   0.19942191   0.03320032
3466.00   0.18605165   0.03253357
3468.00   0.16729088   0.03174429
3470.00   0.16431710   0.03231117
3472.00   0.20342754   0.03216572
3474.00   0.19935369   0.03221668
3476.00   0.25071973   0.03215693
3478.00   0.23199032   0.03558697
3480.00   0.18110572   0.03765852
3482.00   0.17506318   0.03764566
3484.00   0.15235387   0.03654412
3486.00   0.18350306   0.03613467
3488.00   0.17021285   0.03465950
3490.00   0.23927307   0.03455755
3492.00   0.24582484   0.03367104
3494.00   0.18694548   0.03277778
3496.00   0.21960588   0.03255162
3498.00   0.20191021   0.03119890
3500.00   0.18117984   0.03123152
3502.00   0.22024840   0.03108106
3504.00   0.17097066   0.03062586
3506.00   0.23846999   0.03039347
3508.00   0.15809372   0.03026712
3510.00   0.20365588   0.03186521
3512.00   0.24143876   0.03191251
3514.00   0.22695759   0.03091432
3516.00   0.19032320   0.03058528
3518.00   0.19748804   0.03098505
3520.00   0.20237038   0.03049574
3522.00   0.23323734   0.02989263
3524.00   0.20179613   0.02960188
3526.00   0.20366374   0.02985478
3528.00   0.20517577   0.02951997
3530.00   0.23845133   0.03015441
3532.00   0.26077923   0.03000784
3534.00   0.22281565   0.02954238
3536.00   0.16683775   0.02900335
3538.00   0.19458662   0.03008068
3540.00   0.19199994   0.03249855
3542.00   0.16672061   0.03491907
3544.00   0.22926971   0.03599878
3546.00   0.18818229   0.03544829
3548.00   0.21396698   0.03479142
3550.00   0.15545003   0.03313813
3552.00   0.22558229   0.03404548
3554.00   0.20842588   0.03442866
3556.00   0.21399111   0.03391681
3558.00   0.24383150   0.03369835
3560.00   0.20739621   0.03221803
3562.00   0.23909914   0.03128980
3564.00   0.19074154   0.03002664
3566.00   0.20654576   0.03018726
3568.00   0.18260685   0.02931852
3570.00   0.17476216   0.02848165
3572.00   0.22692862   0.02918845
3574.00   0.21632752   0.02950829
3576.00   0.20188798   0.02851854
3578.00   0.19417562   0.02792964
3580.00   0.22827992   0.02774286
3582.00   0.23716970   0.02738727
3584.00   0.23019551   0.02646457
3586.00   0.19697464   0.02516447
3588.00   0.21036875   0.02634033
3590.00   0.24579678   0.02761524
3592.00   0.20699804   0.02658704
3594.00   0.19328462   0.02558473
3596.00   0.20659293   0.02517438
3598.00   0.21184430   0.02516053
3600.00   0.18691655   0.02486890
3602.00   0.18022352   0.02486487
3604.00   0.19450782   0.02457999
3606.00   0.19286186   0.02424104
3608.00   0.16324811   0.02404562
3610.00   0.16339478   0.02400784
3612.00   0.16095063   0.02535192
3614.00   0.14738154   0.02644866
3616.00   0.20891514   0.02689535
3618.00   0.18203855   0.02618506
3620.00   0.18528548   0.02558829
3622.00   0.18810490   0.02517253
3624.00   0.15698466   0.02491111
3626.00   0.20961143   0.02466566
3628.00   0.20549455   0.02528468
3630.00   0.19236998   0.02690087
3632.00   0.15002780   0.02716296
3634.00   0.21386720   0.02690858
3636.00   0.19594681   0.02688332
3638.00   0.19304852   0.02659059
3640.00   0.19755480   0.02675262
3642.00   0.23599210   0.02807674
3644.00   0.19972818   0.02849575
3646.00   0.27909973   0.02966015
3648.00   0.22126690   0.03761867
3650.00   0.21644986   0.04391550
3652.00   0.29501811   0.04111728
3654.00   0.23685981   0.03623105
3656.00   0.20721926   0.03305380
3658.00   0.15903844   0.02730146
3660.00   0.20572509   0.02759588
3662.00   0.23056556   0.03173705
3664.00   0.19802257   0.03103612
3666.00   0.17634894   0.02581318
3668.00   0.22753015   0.02338924
3670.00   0.22588240   0.02312094
3672.00   0.23175099   0.02285854
3674.00   0.23282756   0.02206310
3676.00   0.18701430   0.02141095
3678.00   0.13343218   0.02027938
3680.00   0.18563624   0.02064394
3682.00   0.17498718   0.02056439
3684.00   0.21306790   0.02074639
3686.00   0.24542443   0.02093106
3688.00   0.23393217   0.02090055
3690.00   0.19220728   0.02069709
3692.00   0.17570849   0.02064991
3694.00   0.18752135   0.02029613
3696.00   0.22307162   0.02065053
3698.00   0.26985937   0.02191723
3700.00   0.23978016   0.02220709
3702.00   0.23960233   0.02226982
3704.00   0.23217724   0.02209529
3706.00   0.19572596   0.02126374
3708.00   0.23938927   0.02120757
3710.00   0.22708040   0.02058148
3712.00   0.23478292   0.02086671
3714.00   0.19432099   0.02018930
3716.00   0.24076276   0.02020877
3718.00   0.23386885   0.02006257
3720.00   0.23356234   0.02020418
3722.00   0.22091541   0.01978181
3724.00   0.21748321   0.01971821
3726.00   0.26277426   0.02052524
3728.00   0.23621845   0.02092427
3730.00   0.19543463   0.02024951
3732.00   0.25271326   0.02099990
3734.00   0.22619243   0.02056929
3736.00   0.23037715   0.02082560
3738.00   0.22915801   0.02134358
3740.00   0.24129921   0.02161170
3742.00   0.22304434   0.02106093
3744.00   0.24318391   0.02041796
3746.00   0.23993608   0.02020163
3748.00   0.21156080   0.01969101
3750.00   0.22747114   0.01939973
3752.00   0.21439287   0.01913206
3754.00   0.19607462   0.01898907
3756.00   0.22814356   0.01930663
3758.00   0.25156632   0.01925361
3760.00   0.27438930   0.01943947
3762.00   0.23376794   0.01857917
3764.00   0.23014042   0.01834191
3766.00   0.20477670   0.01773865
3768.00   0.21724938   0.01750405
3770.00   0.25209638   0.01849495
3772.00   0.30174401   0.01969674
3774.00   0.32891414   0.02003577
3776.00   0.30563435   0.01940701
3778.00   0.26181662   0.01844890
3780.00   0.20242809   0.01745234
3782.00   0.19138087   0.01703426
3784.00   0.20421353   0.01726778
3786.00   0.25924900   0.01796734
3788.00   0.21147861   0.01798725
3790.00   0.24480036   0.01841577
3792.00   0.22025688   0.01808511
3794.00   0.19180360   0.01728723
3796.00   0.18747470   0.01690120
3798.00   0.22017312   0.01685902
3800.00   0.24743378   0.01759450
3802.00   0.21940100   0.01783359
3804.00   0.25474626   0.01777297
3806.00   0.20214210   0.01708023
3808.00   0.21342267   0.01709563
3810.00   0.24653289   0.01739876
3812.00   0.22871135   0.01767978
3814.00   0.24304718   0.01782103
3816.00   0.19443218   0.01749126
3818.00   0.22903296   0.01745101
3820.00   0.25140277   0.01772190
3822.00   0.25135586   0.01776490
3824.00   0.24168746   0.01763955
3826.00   0.26619902   0.01802061
3828.00   0.28097528   0.01908426
3830.00   0.28834867   0.01983175
3832.00   0.26918480   0.01938576
3834.00   0.24386023   0.01871778
3836.00   0.22108585   0.01778769
3838.00   0.29266873   0.01810633
3840.00   0.23827372   0.01736824
3842.00   0.19284399   0.01682032
3844.00   0.20724815   0.01653081
3846.00   0.16635273   0.01572257
3848.00   0.23252642   0.01622072
3850.00   0.23990890   0.01616737
3852.00   0.27098915   0.01636443
3854.00   0.26315352   0.01607748
3856.00   0.28729743   0.01622911
3858.00   0.29332095   0.01602952
3860.00   0.27768838   0.01594167
3862.00   0.28213376   0.01627075
3864.00   0.25357792   0.01597220
3866.00   0.26424214   0.01579223
3868.00   0.26424351   0.01534713
3870.00   0.22944234   0.01491336
3872.00   0.22384387   0.01522592
3874.00   0.22419220   0.01577951
3876.00   0.20399509   0.01531009
3878.00   0.18782990   0.01443580
3880.00   0.16537237   0.01396247
3882.00   0.14381495   0.01349098
3884.00   0.18764269   0.01363984
3886.00   0.19477557   0.01377251
3888.00   0.20211287   0.01403765
3890.00   0.21204966   0.01431573
3892.00   0.25223163   0.01482885
3894.00   0.26154980   0.01512614
3896.00   0.23658241   0.01525049
3898.00   0.25040498   0.01527134
3900.00   0.25884804   0.01544499
3902.00   0.27057555   0.01585842
3904.00   0.24799667   0.01667548
3906.00   0.21154638   0.01839771
3908.00   0.26364565   0.01975946
3910.00   0.27987334   0.01997396
3912.00   0.25973138   0.01988514
3914.00   0.26474649   0.01872225
3916.00   0.26066080   0.01702151
3918.00   0.24083616   0.01624195
3920.00   0.23838180   0.01546641
3922.00   0.22885726   0.01507690
3924.00   0.28129664   0.01543934
3926.00   0.26711243   0.01542369
3928.00   0.25120065   0.01454315
3930.00   0.22422431   0.01441917
3932.00   0.20462625   0.01513113
3934.00   0.21026185   0.01505229
3936.00   0.18720761   0.01391989
3938.00   0.23402880   0.01424745
3940.00   0.23367245   0.01471110
3942.00   0.27751744   0.01598054
3944.00   0.26463532   0.01634103
3946.00   0.28823790   0.01604738
3948.00   0.27279264   0.01530615
3950.00   0.26019141   0.01505216
3952.00   0.29176882   0.01501659
3954.00   0.29619744   0.01491600
3956.00   0.31220412   0.01482049
3958.00   0.29537064   0.01504143
3960.00   0.31813294   0.01634948
3962.00   0.32237133   0.01648704
3964.00   0.25869295   0.01479372
3966.00   0.28897154   0.01428868
3968.00   0.25522560   0.01386562
3970.00   0.28510866   0.01398715
3972.00   0.29925564   0.01438799
3974.00   0.27600592   0.01443741
3976.00   0.23845090   0.01380465
3978.00   0.21422669   0.01346377
3980.00   0.21621284   0.01315493
3982.00   0.16365941   0.01260755
3984.00   0.21505824   0.01274712
3986.00   0.23321711   0.01303195
3988.00   0.27674845   0.01367885
3990.00   0.28562146   0.01398902
3992.00   0.28345433   0.01389692
3994.00   0.29626858   0.01453905
3996.00   0.30989867   0.01543740
3998.00   0.30220935   0.01527000
4000.00   0.29560429   0.01444032
4002.00   0.32749751   0.01412558
4004.00   0.30853236   0.01413346
4006.00   0.30134779   0.01433627
4008.00   0.30634210   0.01474455
4010.00   0.28062278   0.01454670
4012.00   0.25050530   0.01414918
4014.00   0.22624762   0.01352371
4016.00   0.18855551   0.01310970
4018.00   0.18464114   0.01471736
4020.00   0.19505411   0.01672697
4022.00   0.24280775   0.01801580
4024.00   0.25619605   0.01827582
4026.00   0.29647157   0.01646611
4028.00   0.30472696   0.01556922
4030.00   0.35421947   0.01570150
4032.00   0.35525796   0.01563159
4034.00   0.34457752   0.01523056
4036.00   0.32470113   0.01489469
4038.00   0.35545158   0.01515345
4040.00   0.37684414   0.01546408
4042.00   0.36553127   0.01603913
4044.00   0.33408374   0.02473248
4046.00   0.36648655   0.03238503
4048.00   0.41077942   0.02974840
4050.00   0.32845476   0.01942823
4052.00   0.39115515   0.01682045
4054.00   0.39072374   0.01694076
4056.00   0.36870235   0.01643722
4058.00   0.39907527   0.01556683
4060.00   0.36529538   0.01515140
4062.00   0.34751061   0.01518145
4064.00   0.37765959   0.01527796
4066.00   0.37764713   0.01531251
4068.00   0.38339022   0.01510147
4070.00   0.40080407   0.01506307
4072.00   0.39273337   0.01466708
4074.00   0.35777697   0.01494011
4076.00   0.40201518   0.01745891
4078.00   0.38812590   0.01808897
4080.00   0.36590573   0.01694389
4082.00   0.34332606   0.01606309
4084.00   0.32672063   0.01587891
4086.00   0.36197940   0.01575659
4088.00   0.41138139   0.01537606
4090.00   0.42396984   0.01463781
4092.00   0.37399429   0.01411869
4094.00   0.39148498   0.01412818
4096.00   0.37862012   0.01398481
4098.00   0.42544806   0.01420665
4100.00   0.42416623   0.01439621
4102.00   0.45033714   0.01413107
4104.00   0.45589167   0.01392052
4106.00   0.42181343   0.01386137
4108.00   0.41677761   0.01388974
4110.00   0.43163884   0.01397247
4112.00   0.41013554   0.01380403
4114.00   0.39939284   0.01375779
4116.00   0.42679089   0.01381296
4118.00   0.41813833   0.01358557
4120.00   0.43202993   0.01345646
4122.00   0.42667875   0.01363005
4124.00   0.41404176   0.01363901
4126.00   0.41497263   0.01363133
4128.00   0.38645250   0.01350789
4130.00   0.38934520   0.01384178
4132.00   0.38965797   0.01449865
4134.00   0.42214862   0.01466457
4136.00   0.43733004   0.01407664
4138.00   0.41773027   0.01431051
4140.00   0.40451083   0.01446962
4142.00   0.40151834   0.01401146
4144.00   0.36662409   0.01316834
4146.00   0.36468598   0.01303390
4148.00   0.35584956   0.01294588
4150.00   0.35243830   0.01335156
4152.00   0.35347211   0.01390208
4154.00   0.35161486   0.01379033
4156.00   0.35516804   0.01328919
4158.00   0.37169525   0.01335252
4160.00   0.37179437   0.01348431
4162.00   0.32295200   0.01391021
4164.00   0.35530826   0.01507705
4166.00   0.41754794   0.01531204
4168.00   0.40524715   0.01429610
4170.00   0.37399146   0.01381513
4172.00   0.36255807   0.01357781
4174.00   0.38046339   0.01333633
4176.00   0.35885814   0.01334347
4178.00   0.36005801   0.01352173
4180.00   0.34691960   0.01320405
4182.00   0.33093250   0.01284691
4184.00   0.35805097   0.01285940
4186.00   0.35311261   0.01294780
4188.00   0.35056129   0.01300578
4190.00   0.36747009   0.01314617
4192.00   0.38319719   0.01321795
4194.00   0.34711844   0.01299845
4196.00   0.35323417   0.01273833
4198.00   0.37162134   0.01274410
4200.00   0.34452927   0.01273589
4202.00   0.36781222   0.01286689
4204.00   0.35329318   0.01283607
4206.00   0.34554592   0.01291011
4208.00   0.35660070   0.01317059
4210.00   0.33260885   0.01330787
4212.00   0.34344032   0.01324378
4214.00   0.37395912   0.01328773
4216.00   0.36495402   0.01320723
4218.00   0.32731402   0.01289789
4220.00   0.37732631   0.01303204
4222.00   0.34051839   0.01279998
4224.00   0.33882406   0.01287969
4226.00   0.32811692   0.01291501
4228.00   0.33814937   0.01274902
4230.00   0.37304875   0.01307720
4232.00   0.35159418   0.01339493
4234.00   0.35665953   0.01343605
4236.00   0.36726478   0.01354930
4238.00   0.34800765   0.01370915
4240.00   0.34288761   0.01325080
4242.00   0.37875435   0.01296478
4244.00   0.37584865   0.01424457
4246.00   0.36093852   0.01577662
4248.00   0.33526197   0.01530998
4250.00   0.34486127   0.01348480
4252.00   0.35510200   0.01298901
4254.00   0.37363029   0.01312461
4256.00   0.36819828   0.01334831
4258.00   0.36724553   0.01334396
4260.00   0.38571963   0.01320605
4262.00   0.41373146   0.01315186
4264.00   0.41094565   0.01313378
4266.00   0.39721200   0.01312269
4268.00   0.40336218   0.01314233
4270.00   0.42501286   0.01328077
4272.00   0.42392743   0.01335405
4274.00   0.39274079   0.01319236
4276.00   0.34257784   0.01291273
4278.00   0.32918808   0.01290231
4280.00   0.32917976   0.01290285
4282.00   0.38605621   0.01324172
4284.00   0.37483013   0.01333896
4286.00   0.37014082   0.01313810
4288.00   0.37596178   0.01299620
4290.00   0.33611557   0.01291761
4292.00   0.37503138   0.01309291
4294.00   0.36340591   0.01324831
4296.00   0.37679207   0.01332310
4298.00   0.38213941   0.01327479
4300.00   0.37014079   0.01315082
4302.00   0.35338461   0.01293673
4304.00   0.35286683   0.01316120
4306.00   0.37384871   0.01340251
4308.00   0.38670155   0.01348105
4310.00   0.35096434   0.01346722
4312.00   0.36709079   0.01449523
4314.00   0.35027686   0.01502297
4316.00   0.38176334   0.01454813
4318.00   0.39350596   0.01433049
4320.00   0.40802833   0.01476035
4322.00   0.37017709   0.01457975
4324.00   0.34444121   0.01419660
4326.00   0.36368424   0.01405312
4328.00   0.33602554   0.01342016
4330.00   0.36198795   0.01325146
4332.00   0.40286073   0.01344627
4334.00   0.36242145   0.01345652
4336.00   0.38889793   0.01374310
4338.00   0.36637500   0.01400258
4340.00   0.36890534   0.01406037
4342.00   0.36959258   0.01388220
4344.00   0.37606558   0.01423190
4346.00   0.35846800   0.01485349
4348.00   0.34344974   0.01504208
4350.00   0.34623691   0.01445136
4352.00   0.33034700   0.01414759
4354.00   0.29965207   0.01568447
4356.00   0.34036866   0.02784145
4358.00   0.42337543   0.03495325
4360.00   0.33863896   0.03023110
4362.00   0.28234830   0.01969793
4364.00   0.35885152   0.01557832
4366.00   0.38915938   0.01505320
4368.00   0.37693599   0.01487220
4370.00   0.40627965   0.01483880
4372.00   0.42127195   0.01537535
4374.00   0.37924764   0.01558506
4376.00   0.37333319   0.01513051
4378.00   0.33145854   0.01423753
4380.00   0.36399227   0.01410190
4382.00   0.34527561   0.01404848
4384.00   0.38255942   0.01411136
4386.00   0.38491443   0.01398814
4388.00   0.38012576   0.01398033
4390.00   0.33162931   0.01382781
4392.00   0.33384696   0.01380989
4394.00   0.38959518   0.01376344
4396.00   0.35104331   0.01371725
4398.00   0.35297683   0.01405682
4400.00   0.35740063   0.01464167
4402.00   0.38503557   0.01468400
4404.00   0.37441936   0.01421715
4406.00   0.34888536   0.01408182
4408.00   0.35434401   0.01425908
4410.00   0.40015337   0.01441548
4412.00   0.42071906   0.01460625
4414.00   0.42540666   0.01496220
4416.00   0.40593943   0.01501337
4418.00   0.41178828   0.01466318
4420.00   0.39930338   0.01452314
4422.00   0.39770585   0.01440588
4424.00   0.41203383   0.01445157
4426.00   0.40094790   0.01430739
4428.00   0.40511131   0.01420534
4430.00   0.40159199   0.01428941
4432.00   0.38631678   0.01426456
4434.00   0.41764173   0.01423964
4436.00   0.35955489   0.01395890
4438.00   0.33874899   0.01392184
4440.00   0.33650550   0.01385521
4442.00   0.39061281   0.01396440
4444.00   0.38290048   0.01404537
4446.00   0.43575114   0.01423114
4448.00   0.40087083   0.01402634
4450.00   0.39429581   0.01401176
4452.00   0.43633932   0.01415606
4454.00   0.39399615   0.01397804
4456.00   0.39861757   0.01400847
4458.00   0.37585625   0.01392620
4460.00   0.36900592   0.01390414
4462.00   0.38137025   0.01386000
4464.00   0.40968877   0.01391021
4466.00   0.40966851   0.01395884
4468.00   0.40985402   0.01398801
4470.00   0.39811704   0.01382655
4472.00   0.42195001   0.01389077
4474.00   0.44362956   0.01404048
4476.00   0.43501759   0.01398133
4478.00   0.43146780   0.01398481
4480.00   0.40641436   0.01387502
4482.00   0.43647522   0.01403333
4484.00   0.42659238   0.01405580
4486.00   0.42156690   0.01401752
4488.00   0.42542699   0.01393747
4490.00   0.44346854   0.01395291
4492.00   0.44612196   0.01413512
4494.00   0.44100624   0.01420485
4496.00   0.44110063   0.01412647
4498.00   0.42196751   0.01403161
4500.00   0.42523858   0.01397232
4502.00   0.41967162   0.01391478
4504.00   0.42866471   0.01388123
4506.00   0.41799253   0.01381270
4508.00   0.43247116   0.01371654
4510.00   0.42681825   0.01358565
4512.00   0.41400772   0.01339852
4514.00   0.38880372   0.01334394
4516.00   0.38369229   0.01325454
4518.00   0.41618159   0.01332247
4520.00   0.39036113   0.01323810
4522.00   0.41220811   0.01334193
4524.00   0.42337909   0.01331202
4526.00   0.43044987   0.01329140
4528.00   0.42390528   0.01330846
4530.00   0.43304652   0.01336683
4532.00   0.45979363   0.01347314
4534.00   0.44265038   0.01332325
4536.00   0.40078381   0.01315847
4538.00   0.39841563   0.01299758
4540.00   0.46452379   0.01326013
4542.00   0.46320793   0.01339402
4544.00   0.42947257   0.01334007
4546.00   0.45429203   0.01329797
4548.00   0.42155746   0.01299059
4550.00   0.41781786   0.01281575
4552.00   0.41408902   0.01277527
4554.00   0.41138539   0.01281855
4556.00   0.43804348   0.01294083
4558.00   0.43564242   0.01297635
4560.00   0.46729594   0.01291804
4562.00   0.43481457   0.01274318
4564.00   0.46053880   0.01271409
4566.00   0.46868613   0.01269705
4568.00   0.44001096   0.01252887
4570.00   0.43808490   0.01250033
4572.00   0.42819735   0.01248770
4574.00   0.44642082   0.01262707
4576.00   0.45752507   0.01252630
4578.00   0.44428095   0.01236448
4580.00   0.43320191   0.01224894
4582.00   0.42354581   0.01206297
4584.00   0.40962824   0.01187646
4586.00   0.42320743   0.01189901
4588.00   0.43250263   0.01194674
4590.00   0.39026541   0.01182693
4592.00   0.42694813   0.01200160
4594.00   0.45942444   0.01212237
4596.00   0.44757512   0.01214319
4598.00   0.47191957   0.01216607
4600.00   0.47658584   0.01206969
4602.00   0.46142706   0.01190416
4604.00   0.44631177   0.01188932
4606.00   0.45407256   0.01185351
4608.00   0.44958824   0.01189292
4610.00   0.46826872   0.01199865
4612.00   0.50174266   0.01200988
4614.00   0.52989620   0.01201332
4616.00   0.57902563   0.01215962
4618.00   0.55557775   0.01211243
4620.00   0.53371847   0.01203350
4622.00   0.54829109   0.01204684
4624.00   0.54737514   0.01202334
4626.00   0.55184770   0.01207066
4628.00   0.55703217   0.01209121
4630.00   0.54379022   0.01200096
4632.00   0.52707344   0.01197950
4634.00   0.53873205   0.01192988
4636.00   0.49834937   0.01170397
4638.00   0.50042093   0.01169479
4640.00   0.47038022   0.01159419
4642.00   0.50631922   0.01165897
4644.00   0.50241840   0.01162065
4646.00   0.52102059   0.01172552
4648.00   0.49100721   0.01166849
4650.00   0.51973724   0.01172472
4652.00   0.49138141   0.01162669
4654.00   0.50775391   0.01179718
4656.00   0.51577836   0.01194430
4658.00   0.51366007   0.01205270
4660.00   0.53502077   0.01221260
4662.00   0.54624850   0.01241042
4664.00   0.53656274   0.01249590
4666.00   0.55922621   0.01280096
4668.00   0.55392170   0.01302111
4670.00   0.53684062   0.01293319
4672.00   0.55670768   0.01290228
4674.00   0.52712303   0.01260814
4676.00   0.53515106   0.01245782
4678.00   0.52363914   0.01225670
4680.00   0.52090764   0.01211514
4682.00   0.52945316   0.01209017
4684.00   0.53027236   0.01198662
4686.00   0.54052824   0.01186910
4688.00   0.54389179   0.01185749
4690.00   0.52590156   0.01177507
4692.00   0.55158186   0.01182545
4694.00   0.54950732   0.01175339
4696.00   0.54381096   0.01168479
4698.00   0.53558135   0.01155257
4700.00   0.54944962   0.01159847
4702.00   0.55438960   0.01164260
4704.00   0.55214053   0.01164641
4706.00   0.55191046   0.01179211
4708.00   0.58862060   0.01206066
4710.00   0.59470552   0.01207712
4712.00   0.56954527   0.01196233
4714.00   0.57859331   0.01188836
4716.00   0.58473641   0.01182122
4718.00   0.58662963   0.01181069
4720.00   0.56899935   0.01166986
4722.00   0.55411470   0.01158606
4724.00   0.51730567   0.01137694
4726.00   0.52505976   0.01165577
4728.00   0.53737390   0.01234089
4730.00   0.55269516   0.01249121
4732.00   0.56055725   0.01245148
4734.00   0.56885916   0.01265241
4736.00   0.54752249   0.01284398
4738.00   0.51826191   0.01290544
4740.00   0.54600382   0.01323562
4742.00   0.53780830   0.01360591
4744.00   0.55034345   0.01330284
4746.00   0.55966920   0.01251835
4748.00   0.53116965   0.01168008
4750.00   0.54140294   0.01168682
4752.00   0.51356858   0.01193768
4754.00   0.55373168   0.01197295
4756.00   0.52190375   0.01146432
4758.00   0.53120708   0.01119384
4760.00   0.52352029   0.01102324
4762.00   0.48153040   0.01074500
4764.00   0.48536357   0.01077884
4766.00   0.50744522   0.01081042
4768.00   0.52114254   0.01081045
4770.00   0.51394367   0.01072635
4772.00   0.50893730   0.01076145
4774.00   0.51154608   0.01079924
4776.00   0.53396720   0.01110231
4778.00   0.56215918   0.01154645
4780.00   0.53251719   0.01147942
4782.00   0.54075646   0.01121661
4784.00   0.50942016   0.01093413
4786.00   0.49715802   0.01079267
4788.00   0.50305963   0.01073948
4790.00   0.50463337   0.01082524
4792.00   0.51810080   0.01086259
4794.00   0.51458204   0.01081363
4796.00   0.50709343   0.01065745
4798.00   0.52381366   0.01069834
4800.00   0.51843643   0.01068549
4802.00   0.53235787   0.01077151
4804.00   0.52315599   0.01078146
4806.00   0.54441839   0.01088500
4808.00   0.55116695   0.01096585
4810.00   0.53292614   0.01090762
4812.00   0.53194523   0.01077798
4814.00   0.49958551   0.01069420
4816.00   0.50036681   0.01076173
4818.00   0.51680875   0.01082672
4820.00   0.49891388   0.01082936
4822.00   0.51486295   0.01093225
4824.00   0.47983330   0.01084495
4826.00   0.49734712   0.01095349
4828.00   0.52917808   0.01110855
4830.00   0.53990865   0.01117482
4832.00   0.52211887   0.01124899
4834.00   0.52677971   0.01125683
4836.00   0.51920688   0.01117692
4838.00   0.55682015   0.01151097
4840.00   0.50405401   0.01145608
4842.00   0.54029977   0.01137474
4844.00   0.50855267   0.01108957
4846.00   0.53406024   0.01112907
4848.00   0.52776384   0.01113304
4850.00   0.55830300   0.01134379
4852.00   0.55025887   0.01132932
4854.00   0.56886274   0.01135639
4856.00   0.55148667   0.01119746
4858.00   0.54230505   0.01116196
4860.00   0.53686142   0.01125546
4862.00   0.54366636   0.01131795
4864.00   0.51706910   0.01120525
4866.00   0.51059735   0.01108171
4868.00   0.50874078   0.01103381
4870.00   0.51360494   0.01101464
4872.00   0.50863379   0.01100035
4874.00   0.47793639   0.01089505
4876.00   0.50725883   0.01104408
4878.00   0.50518131   0.01112364
4880.00   0.50646162   0.01112544
4882.00   0.50414258   0.01105385
4884.00   0.50345385   0.01092250
4886.00   0.51033390   0.01087975
4888.00   0.49877563   0.01081035
4890.00   0.48898938   0.01075816
4892.00   0.46450391   0.01072822
4894.00   0.47272769   0.01080680
4896.00   0.48447385   0.01077096
4898.00   0.46998921   0.01060497
4900.00   0.47662383   0.01058878
4902.00   0.49971956   0.01065093
4904.00   0.48067099   0.01057778
4906.00   0.49635327   0.01074679
4908.00   0.48632786   0.01074741
4910.00   0.49146408   0.01078769
4912.00   0.49764082   0.01072054
4914.00   0.46301585   0.01058348
4916.00   0.44196457   0.01050408
4918.00   0.44565332   0.01042983
4920.00   0.53709394   0.01077761
4922.00   0.57097208   0.01090461
4924.00   0.51334196   0.01056673
4926.00   0.42764354   0.01011335
4928.00   0.42424947   0.01000455
4930.00   0.41525400   0.00994638
4932.00   0.40553394   0.00995865
4934.00   0.40098950   0.01001592
4936.00   0.42973143   0.01018473
4938.00   0.42395553   0.01029249
4940.00   0.44950482   0.01040674
4942.00   0.47097099   0.01054185
4944.00   0.45833331   0.01037188
4946.00   0.45974615   0.01029278
4948.00   0.48005071   0.01032694
4950.00   0.46923545   0.01039656
4952.00   0.49879625   0.01073924
4954.00   0.52394044   0.01094630
4956.00   0.55519491   0.01106544
4958.00   0.58203048   0.01106913
4960.00   0.59569001   0.01111504
4962.00   0.60212320   0.01117278
4964.00   0.60081661   0.01129130
4966.00   0.60397184   0.01134962
4968.00   0.58624321   0.01143265
4970.00   0.59773475   0.01157906
4972.00   0.60145307   0.01188878
4974.00   0.62601274   0.01227088
4976.00   0.62368178   0.01260964
4978.00   0.59396851   0.01299520
4980.00   0.60992992   0.01345901
4982.00   0.58760905   0.01368210
4984.00   0.58397567   0.01370960
4986.00   0.60649413   0.01348501
4988.00   0.63771379   0.01313215
4990.00   0.63530260   0.01283556
4992.00   0.64102125   0.01267196
4994.00   0.63180757   0.01253996
4996.00   0.61993217   0.01178713
4998.00   0.60212499   0.01146630
5000.00   0.55348158   0.01115991
5002.00   0.57151538   0.01113277
5004.00   0.57794666   0.01109649
5006.00   0.57262838   0.01099510
5008.00   0.55691606   0.01090434
5010.00   0.56449139   0.01081626
5012.00   0.54866546   0.01076189
5014.00   0.52792978   0.01066136
5016.00   0.50637388   0.01063936
5018.00   0.46634224   0.01057429
5020.00   0.44630152   0.01055556
5022.00   0.47899348   0.01057830
5024.00   0.48460567   0.01043799
5026.00   0.47707108   0.01036747
5028.00   0.46874616   0.01042229
5030.00   0.48006967   0.01059939
5032.00   0.48183224   0.01062763
5034.00   0.48049200   0.01040706
5036.00   0.47429168   0.01034472
5038.00   0.48431465   0.01031888
5040.00   0.46910629   0.01019353
5042.00   0.48759365   0.01030612
5044.00   0.44203010   0.01012502
5046.00   0.48266765   0.01025435
5048.00   0.49890673   0.01036378
5050.00   0.50388753   0.01041352
5052.00   0.52149159   0.01047207
5054.00   0.54331297   0.01058947
5056.00   0.54544270   0.01056343
5058.00   0.56152910   0.01059732
5060.00   0.58137137   0.01071161
5062.00   0.56541216   0.01081811
5064.00   0.58333457   0.01111996
5066.00   0.58365095   0.01122770
5068.00   0.60687882   0.01167588
5070.00   0.60985583   0.01189475
5072.00   0.59798515   0.01147888
5074.00   0.60146630   0.01133976
5076.00   0.59635210   0.01118931
5078.00   0.60052198   0.01165424
5080.00   0.60135591   0.01218076
5082.00   0.59894502   0.01302215
5084.00   0.58603030   0.01362467
5086.00   0.61802179   0.01377723
5088.00   0.60616696   0.01317410
5090.00   0.60600078   0.01226762
5092.00   0.59486353   0.01156838
5094.00   0.58826858   0.01123603
5096.00   0.56465447   0.01131699
5098.00   0.54265451   0.01158331
5100.00   0.56764764   0.01175097
5102.00   0.53019226   0.01132940
5104.00   0.54846704   0.01093053
5106.00   0.55562365   0.01079023
5108.00   0.54818624   0.01072962
5110.00   0.56035239   0.01087564
5112.00   0.55474424   0.01087610
5114.00   0.53681022   0.01087618
5116.00   0.55019712   0.01095817
5118.00   0.57752752   0.01103249
5120.00   0.55063003   0.01082813
5122.00   0.55904120   0.01076177
5124.00   0.56190944   0.01081009
5126.00   0.57327586   0.01079300
5128.00   0.56353378   0.01069301
5130.00   0.57102823   0.01071370
5132.00   0.53322327   0.01067300
5134.00   0.51455450   0.01058682
5136.00   0.53750068   0.01065637
5138.00   0.52828687   0.01065646
5140.00   0.50165057   0.01055607
5142.00   0.50455642   0.01055521
5144.00   0.48625290   0.01053491
5146.00   0.45069236   0.01053776
5148.00   0.45595673   0.01076532
5150.00   0.48583266   0.01119094
5152.00   0.47559041   0.01147830
5154.00   0.47939929   0.01166844
5156.00   0.47687092   0.01154480
5158.00   0.48988518   0.01125963
5160.00   0.47672185   0.01098782
5162.00   0.44546291   0.01066988
5164.00   0.45027697   0.01056796
5166.00   0.45774630   0.01054798
5168.00   0.44208100   0.01048971
5170.00   0.42051229   0.01036936
5172.00   0.43648627   0.01037059
5174.00   0.44286731   0.01049791
5176.00   0.43000451   0.01053550
5178.00   0.46542916   0.01069401
5180.00   0.45028928   0.01061565
5182.00   0.48193204   0.01071874
5184.00   0.47500983   0.01068550
5186.00   0.45091996   0.01067220
5188.00   0.42774823   0.01062861
5190.00   0.44065955   0.01066203
5192.00   0.46126741   0.01074150
5194.00   0.42598104   0.01060613
5196.00   0.46153304   0.01085804
5198.00   0.45107222   0.01096697
5200.00   0.44966343   0.01099173
5202.00   0.45561922   0.01102886
5204.00   0.47421062   0.01101020
5206.00   0.46445939   0.01096006
5208.00   0.45431983   0.01105265
5210.00   0.45845741   0.01124401
5212.00   0.45042270   0.01126080
5214.00   0.45304167   0.01110700
5216.00   0.47157666   0.01120110
5218.00   0.45106679   0.01124049
5220.00   0.45981443   0.01137231
5222.00   0.50608933   0.01152206
5224.00   0.50250691   0.01145956
5226.00   0.53331083   0.01149151
5228.00   0.47937319   0.01122539
5230.00   0.44239038   0.01110393
5232.00   0.43864542   0.01099924
5234.00   0.43844157   0.01090351
5236.00   0.42775089   0.01088529
5238.00   0.44076467   0.01107652
5240.00   0.47517192   0.01131789
5242.00   0.47240525   0.01126880
5244.00   0.46661577   0.01116851
5246.00   0.44284648   0.01108173
5248.00   0.42380726   0.01098118
5250.00   0.45107955   0.01108513
5252.00   0.46106684   0.01124416
5254.00   0.46819401   0.01141625
5256.00   0.48421302   0.01174431
5258.00   0.48556432   0.01192296
5260.00   0.49365199   0.01193627
5262.00   0.50999963   0.01182059
5264.00   0.52244318   0.01184433
5266.00   0.51271731   0.01175683
5268.00   0.50450921   0.01168401
5270.00   0.48588160   0.01164505
5272.00   0.50956035   0.01176313
5274.00   0.48098102   0.01170612
5276.00   0.49991691   0.01185933
5278.00   0.51361352   0.01196055
5280.00   0.50492889   0.01189596
5282.00   0.49481681   0.01193542
5284.00   0.51203352   0.01216628
5286.00   0.50317192   0.01227701
5288.00   0.50388330   0.01222272
5290.00   0.46623686   0.01203066
5292.00   0.47540900   0.01201874
5294.00   0.49231845   0.01205619
5296.00   0.48013285   0.01214493
5298.00   0.48280933   0.01229395
5300.00   0.46181920   0.01232856
5302.00   0.48564923   0.01244333
5304.00   0.49754271   0.01257557
5306.00   0.55170286   0.01286751
5308.00   0.54920053   0.01290642
5310.00   0.52574611   0.01289562
5312.00   0.51504225   0.01291732
5314.00   0.50940549   0.01295379
5316.00   0.50881898   0.01299774
5318.00   0.52187991   0.01307502
5320.00   0.52598798   0.01314495
5322.00   0.51707482   0.01317164
5324.00   0.49773189   0.02406714
5326.00   0.48947763   0.02400705
5328.00   0.48769096   0.02386848
5330.00   0.47686306   0.02362954
5332.00   0.47531152   0.02354086
5334.00   0.48174426   0.02367935
5336.00   0.47974691   0.02379304
5338.00   0.47757542   0.02394462
5340.00   0.49089023   0.02408518
5342.00   0.50894862   0.02444679
5344.00   0.50552243   0.02467596
5346.00   0.51419491   0.02482810
5348.00   0.52676922   0.02502698
5350.00   0.54833537   0.02524545
5352.00   0.53889865   0.02520912
5354.00   0.52860385   0.02501844
5356.00   0.54536462   0.02487108
5358.00   0.55889416   0.02470742
5360.00   0.55200434   0.02433645
5362.00   0.55623484   0.02403191
5364.00   0.55500042   0.02387536
5366.00   0.55081338   0.02383615
5368.00   0.55776602   0.02398192
5370.00   0.57029492   0.02430152
5372.00   0.57597446   0.02449017
5374.00   0.56722307   0.02448151
5376.00   0.57046503   0.02449596
5378.00   0.57048202   0.02439214
5380.00   0.57631660   0.02433984
5382.00   0.57321507   0.02431213
5384.00   0.57478398   0.02432040
5386.00   0.56452936   0.02431277
5388.00   0.56135017   0.02438190
5390.00   0.54381531   0.02423935
5392.00   0.54028064   0.02413055
5394.00   0.55659819   0.02418812
5396.00   0.57416874   0.02423564
5398.00   0.56851143   0.02417514
5400.00   0.57271069   0.02420421
5402.00   0.58742368   0.02435024
5404.00   0.59016842   0.02448733
5406.00   0.58167219   0.02453873
5408.00   0.57737589   0.02468133
5410.00   0.58407712   0.02500813
5412.00   0.57573479   0.02524832
5414.00   0.57267421   0.02544643
5416.00   0.58587521   0.02574017
5418.00   0.63879478   0.02597586
5420.00   0.63770777   0.02585655
5422.00   0.60734922   0.02560241
5424.00   0.57352436   0.02532399
5426.00   0.59502530   0.02517805
5428.00   0.58020705   0.02492767
5430.00   0.57090527   0.02472119
5432.00   0.56913638   0.02452721
5434.00   0.56668222   0.02434325
5436.00   0.55869299   0.02418781
5438.00   0.55826086   0.02416098
5440.00   0.55942172   0.02421505
5442.00   0.55808318   0.02422197
5444.00   0.55826920   0.02423001
5446.00   0.56016797   0.02422947
5448.00   0.54389679   0.02423667
5450.00   0.54989868   0.02450728
5452.00   0.57318544   0.02590179
5454.00   0.59391677   0.02744151
5456.00   0.54918963   0.02987424
5458.00   0.55993551   0.03160639
5460.00   0.56870323   0.03227223
5462.00   0.58017510   0.03166410
5464.00   0.58419651   0.02986592
5466.00   0.59736168   0.02802090
5468.00   0.59615415   0.02517145
5470.00   0.58881670   0.02330588
5472.00   0.59966373   0.02259549
5474.00   0.61502594   0.02244545
5476.00   0.61391085   0.02244856
5478.00   0.61503738   0.02251015
5480.00   0.62560332   0.02256110
5482.00   0.62559688   0.02248155
5484.00   0.64472324   0.02234910
5486.00   0.65335256   0.02202839
5488.00   0.63916939   0.02152218
5490.00   0.62054372   0.02099151
5492.00   0.63501906   0.02059659
5494.00   0.60443288   0.02027136
5496.00   0.60577434   0.01988909
5498.00   0.60750073   0.01962267
5500.00   0.60108519   0.01944394
5502.00   0.59203887   0.01926345
5504.00   0.58937830   0.01911069
5506.00   0.59449917   0.01905110
5508.00   0.59395558   0.01905373
5510.00   0.58361071   0.01898450
5512.00   0.57732064   0.01896048
5514.00   0.56324977   0.01894279
5516.00   0.56066698   0.01888020
5518.00   0.55804521   0.01870137
5520.00   0.56088537   0.01851936
5522.00   0.56603527   0.01832366
5524.00   0.55628425   0.01803198
5526.00   0.54672450   0.01771003
5528.00   0.55605930   0.01747337
5530.00   0.56757981   0.01725080
5532.00   0.56576151   0.01701710
5534.00   0.55073303   0.01683458
5536.00   0.54540473   0.01676787
5538.00   0.53982419   0.01671662
5540.00   0.52894425   0.01659274
5542.00   0.50713986   0.01642132
5544.00   0.50004274   0.01630881
5546.00   0.50380540   0.01622996
5548.00   0.51233029   0.01615840
5550.00   0.52670747   0.01615236
5552.00   0.53860551   0.01614436
5554.00   0.54810816   0.01616395
5556.00   0.53672057   0.01608471
5558.00   0.53626519   0.01611453
5560.00   0.55375123   0.01623455
5562.00   0.56854486   0.01638724
5564.00   0.58763921   0.01641216
5566.00   0.59445596   0.01676901
5568.00   0.60179538   0.01877932
5570.00   0.62080574   0.02326781
5572.00   0.60432023   0.02856164
5574.00   0.59159440   0.03238435
5576.00   0.60065538   0.03401661
5578.00   0.61820436   0.03370192
5580.00   0.62068218   0.03141209
5582.00   0.66303438   0.02707960
5584.00   0.64370751   0.02188668
5586.00   0.62513947   0.01803569
5588.00   0.63577402   0.01663866
5590.00   0.64267892   0.01653111
5592.00   0.65012312   0.01654947
5594.00   0.65378630   0.01652538
5596.00   0.65439540   0.01647803
5598.00   0.65421826   0.01641939
5600.00   0.65556437   0.01641894
5602.00   0.64990920   0.01641340
5604.00   0.65290916   0.01640652
5606.00   0.65915990   0.01638650
5608.00   0.65164942   0.01633380
5610.00   0.63783044   0.01623638
5612.00   0.64029205   0.01621578
5614.00   0.64480120   0.01620175
5616.00   0.64014763   0.01616183
5618.00   0.62735593   0.01609734
5620.00   0.62888294   0.01612748
5622.00   0.63307637   0.01615751
5624.00   0.62514323   0.01609173
5626.00   0.61396426   0.01598652
5628.00   0.60835886   0.01594638
5630.00   0.60382539   0.01587385
5632.00   0.60375148   0.01584456
5634.00   0.60018045   0.01582786
5636.00   0.60397857   0.01584138
5638.00   0.60673934   0.01591549
5640.00   0.59267718   0.01599042
5642.00   0.57729506   0.01603009
5644.00   0.57478386   0.01609421
5646.00   0.59781051   0.01613929
5648.00   0.56618577   0.01609888
5650.00   0.54765600   0.01608063
5652.00   0.54599643   0.01609345
5654.00   0.54088634   0.01605677
5656.00   0.52714711   0.01603728
5658.00   0.51235634   0.01608370
5660.00   0.51377112   0.01627420
5662.00   0.51734740   0.01651003
5664.00   0.51578259   0.01686453
5666.00   0.50424731   0.01732645
5668.00   0.49624968   0.01780241
5670.00   0.48531380   0.01811889
5672.00   0.48445305   0.01837442
5674.00   0.48855212   0.01864386
5676.00   0.49722528   0.01906747
5678.00   0.50170684   0.01974169
5680.00   0.49741992   0.02080664
5682.00   0.49401927   0.02217248
5684.00   0.48800036   0.02343250
5686.00   0.48529664   0.02423748
5688.00   0.49107131   0.02440829
5690.00   0.48182949   0.02398769
5692.00   0.49400803   0.02310187
5694.00   0.51142937   0.02193107
5696.00   0.51612133   0.02079971
5698.00   0.51197141   0.01986472
5700.00   0.53792810   0.01923889
5702.00   0.51502132   0.01872503
5704.00   0.53399581   0.01838087
5706.00   0.54586399   0.01825518
5708.00   0.56697100   0.01823686
5710.00   0.57971448   0.01821461
5712.00   0.56849915   0.01814748
5714.00   0.56680387   0.01806495
5716.00   0.58303380   0.01797662
5718.00   0.60703963   0.01789360
5720.00   0.61355776   0.01777802
5722.00   0.60784680   0.01765318
5724.00   0.59884912   0.01753613
5726.00   0.60254973   0.01743442
5728.00   0.61374420   0.01733846
5730.00   0.60768491   0.01720208
5732.00   0.59187192   0.01706966
5734.00   0.60729247   0.01712481
5736.00   0.61707139   0.01714602
5738.00   0.61372906   0.01709159
5740.00   0.61914295   0.01709144
5742.00   0.63589865   0.01722202
5744.00   0.64027357   0.01727821
5746.00   0.62728697   0.01729880
5748.00   0.62041837   0.01730699
5750.00   0.60854959   0.01725501
5752.00   0.58841234   0.01717611
5754.00   0.58474058   0.01720872
5756.00   0.59729594   0.01736682
5758.00   0.59898096   0.01754445
5760.00   0.58637732   0.01779738
5762.00   0.58157104   0.01839157
5764.00   0.59237581   0.01926418
5766.00   0.58906436   0.02000645
5768.00   0.58143431   0.02037013
5770.00   0.58550084   0.02037425
5772.00   0.58100349   0.01998248
5774.00   0.57317072   0.01923354
5776.00   0.55823779   0.01837776
5778.00   0.55524516   0.01775757
5780.00   0.54769993   0.01750966
5782.00   0.55157834   0.01780440
5784.00   0.55674136   0.01850398
5786.00   0.56680328   0.01934001
5788.00   0.60088587   0.02000502
5790.00   0.61018342   0.02040373
5792.00   0.60642183   0.02030569
5794.00   0.59616536   0.01979860
5796.00   0.59747154   0.01912130
5798.00   0.60499883   0.01851504
5800.00   0.61233407   0.01809559
5802.00   0.61347514   0.01789082
5804.00   0.60887599   0.01777980
5806.00   0.59787655   0.01770572
5808.00   0.58653706   0.01759290
5810.00   0.59044123   0.01754252
5812.00   0.59956115   0.01756086
5814.00   0.59271985   0.01755056
5816.00   0.57967311   0.01751358
5818.00   0.56842959   0.01748423
5820.00   0.55595726   0.01744865
5822.00   0.54755735   0.01740898
5824.00   0.56495219   0.01747646
5826.00   0.56551456   0.01750713
5828.00   0.55852574   0.01748715
5830.00   0.56170243   0.01751376
5832.00   0.57396221   0.01762211
5834.00   0.56706780   0.01766027
5836.00   0.56361634   0.01766399
5838.00   0.56338781   0.01769564
5840.00   0.56828266   0.01775482
5842.00   0.57488006   0.01779961
5844.00   0.56900662   0.01777720
5846.00   0.55752772   0.01777424
5848.00   0.54406071   0.01777955
5850.00   0.54033679   0.01779423
5852.00   0.53959173   0.01784688
5854.00   0.54315168   0.01790879
5856.00   0.55124617   0.01800896
5858.00   0.56017756   0.01813593
5860.00   0.55651253   0.01827610
5862.00   0.53440702   0.01842601
5864.00   0.53405637   0.01861071
5866.00   0.55924112   0.01879139
5868.00   0.56585157   0.01887759
5870.00   0.54791230   0.01883681
5872.00   0.54132849   0.01867219
5874.00   0.54664898   0.01845164
5876.00   0.54547793   0.01813842
5878.00   0.52707046   0.01781413
5880.00   0.51918244   0.01829520
5882.00   0.51723266   0.02113742
5884.00   0.48852578   0.02610163
5886.00   0.47502640   0.03117067
5888.00   0.48938093   0.03530807
5890.00   0.47224903   0.03865299
5892.00   0.42550614   0.04043284
5894.00   0.37193447   0.03963663
5896.00   0.42785284   0.03669837
5898.00   0.45306543   0.03283473
5900.00   0.46981570   0.02856758
5902.00   0.50912601   0.02399293
5904.00   0.49918038   0.02015183
5906.00   0.50621921   0.01813794
5908.00   0.50275695   0.01771261
5910.00   0.50880361   0.01777384
5912.00   0.50807452   0.01786759
5914.00   0.51833010   0.01799208
5916.00   0.52632803   0.01805704
5918.00   0.52280164   0.01804570
5920.00   0.51755118   0.01801529
5922.00   0.52600378   0.01802087
5924.00   0.53930998   0.01808596
5926.00   0.54914004   0.01822829
5928.00   0.56643486   0.01839866
5930.00   0.58141917   0.01848204
5932.00   0.58958340   0.01848757
5934.00   0.58720368   0.01842657
5936.00   0.59858710   0.01831974
5938.00   0.62012625   0.01816149
5940.00   0.63833141   0.01801744
5942.00   0.64546579   0.01788928
5944.00   0.65392512   0.01783162
5946.00   0.65209645   0.01782147
5948.00   0.65454984   0.01787809
5950.00   0.65613532   0.01791377
5952.00   0.65721297   0.01788895
5954.00   0.65897107   0.01780635
5956.00   0.64891642   0.01765495
5958.00   0.63120908   0.01745292
5960.00   0.61140031   0.01720754
5962.00   0.56465423   0.01700256
5964.00   0.57691902   0.01688424
5966.00   0.57749128   0.01684647
5968.00   0.57579392   0.01682801
5970.00   0.58254081   0.01685279
5972.00   0.61211640   0.01696384
5974.00   0.64463896   0.01708562
5976.00   0.65400285   0.01711205
5978.00   0.65100449   0.01706126
5980.00   0.65376776   0.01700686
5982.00   0.66210800   0.01693182
5984.00   0.66296571   0.01685368
5986.00   0.65196770   0.01677750
5988.00   0.65293449   0.01675050
5990.00   0.64963382   0.01674069
5992.00   0.66721761   0.01672897
5994.00   0.66786158   0.01670100
5996.00   0.65538645   0.01668777
5998.00   0.64861101   0.01664380
6000.00   0.64632040   0.01656731
6002.00   0.64501673   0.01649458
6004.00   0.63938147   0.01640872
6006.00   0.62509322   0.01628335
6008.00   0.62110758   0.01615257
6010.00   0.62131667   0.01607575
6012.00   0.62387639   0.01601563
6014.00   0.62472981   0.01597810
6016.00   0.62563616   0.01592049
6018.00   0.63551915   0.01588356
6020.00   0.62466472   0.01579750
6022.00   0.61276168   0.01573498
6024.00   0.61644036   0.01571352
6026.00   0.62399238   0.01570956
6028.00   0.61689192   0.01569374
6030.00   0.61035353   0.01566978
6032.00   0.61463904   0.01566491
6034.00   0.62954372   0.01565819
6036.00   0.63629520   0.01565805
6038.00   0.62897635   0.01562386
6040.00   0.61615676   0.01556209
6042.00   0.61489940   0.01551624
6044.00   0.63052642   0.01552520
6046.00   0.63353086   0.01549042
6048.00   0.62424588   0.01542230
6050.00   0.61400694   0.01533679
6052.00   0.61361927   0.01529682
6054.00   0.61383742   0.01527509
6056.00   0.61896551   0.01527066
6058.00   0.61952406   0.01522242
6060.00   0.62403828   0.01519753
6062.00   0.62643582   0.01518395
6064.00   0.61742020   0.01513977
6066.00   0.60709018   0.01511701
6068.00   0.60627288   0.01510531
6070.00   0.61304110   0.01508835
6072.00   0.61213392   0.01507276
6074.00   0.61273617   0.01507405
6076.00   0.61324841   0.01504523
6078.00   0.60102624   0.01498582
6080.00   0.58891672   0.01491597
6082.00   0.59125954   0.01493547
6084.00   0.59743160   0.01496125
6086.00   0.59846050   0.01495976
6088.00   0.59758085   0.01495868
6090.00   0.59883565   0.01502173
6092.00   0.60067135   0.01512408
6094.00   0.60175437   0.01519000
6096.00   0.59544259   0.01523482
6098.00   0.59592432   0.01538331
6100.00   0.60941213   0.01569887
6102.00   0.61751229   0.01609691
6104.00   0.60659575   0.01629253
6106.00   0.59033614   0.01649173
6108.00   0.57688922   0.01681819
6110.00   0.59030509   0.01729917
6112.00   0.60315347   0.01761221
6114.00   0.59633899   0.01769123
6116.00   0.61476731   0.01754854
6118.00   0.61072183   0.01723570
6120.00   0.61092836   0.01676890
6122.00   0.60758168   0.01633254
6124.00   0.61055458   0.01602074
6126.00   0.61053175   0.01579346
6128.00   0.60270697   0.01563068
6130.00   0.59704739   0.01553159
6132.00   0.59235018   0.01546053
6134.00   0.58850664   0.01541881
6136.00   0.59432507   0.01546713
6138.00   0.60179740   0.01555060
6140.00   0.60372299   0.01558634
6142.00   0.60866266   0.01559907
6144.00   0.60534406   0.01559541
6146.00   0.59807664   0.01555773
6148.00   0.58613390   0.01556981
6150.00   0.58578438   0.01566322
6152.00   0.57176846   0.01576602
6154.00   0.56260318   0.01593016
6156.00   0.55535954   0.01613107
6158.00   0.55161524   0.01626220
6160.00   0.54768592   0.01618446
6162.00   0.54270530   0.01597551
6164.00   0.53859919   0.01568560
6166.00   0.53945947   0.01532832
6168.00   0.54247618   0.01495435
6170.00   0.54032975   0.01464902
6172.00   0.54781318   0.01446651
6174.00   0.54645383   0.01434535
6176.00   0.53954405   0.01421559
6178.00   0.53407836   0.01412650
6180.00   0.54810894   0.01413499
6182.00   0.55844766   0.01416604
6184.00   0.57579094   0.01421183
6186.00   0.58852816   0.01426470
6188.00   0.59437376   0.01432374
6190.00   0.59437889   0.01431569
6192.00   0.60075617   0.01431492
6194.00   0.59276265   0.01428725
6196.00   0.59432483   0.01428916
6198.00   0.61121678   0.01435275
6200.00   0.61713552   0.01438186
6202.00   0.62025112   0.01440591
6204.00   0.62668461   0.01447073
6206.00   0.61721843   0.01452787
6208.00   0.60891598   0.01451699
6210.00   0.60778147   0.01448144
6212.00   0.60583466   0.01442873
6214.00   0.61062789   0.01437756
6216.00   0.62693954   0.01434159
6218.00   0.62405944   0.01423865
6220.00   0.62489396   0.01419430
6222.00   0.62886661   0.01419580
6224.00   0.62799311   0.01417964
6226.00   0.61788821   0.01411536
6228.00   0.61537260   0.01413986
6230.00   0.61442000   0.01431108
6232.00   0.60167211   0.01456038
6234.00   0.58827204   0.01480850
6236.00   0.57714337   0.01498571
6238.00   0.57673615   0.01505168
6240.00   0.57251817   0.01492825
6242.00   0.56495023   0.01462922
6244.00   0.56143248   0.01430821
6246.00   0.56966323   0.01406445
6248.00   0.56309175   0.01383932
6250.00   0.55480671   0.01374518
6252.00   0.54779977   0.01385396
6254.00   0.54575777   0.01406997
6256.00   0.54580837   0.01425571
6258.00   0.54146624   0.01436604
6260.00   0.53660339   0.01438314
6262.00   0.53451347   0.01425810
6264.00   0.51848364   0.01395812
6266.00   0.50313807   0.01363653
6268.00   0.49812818   0.01339691
6270.00   0.50472564   0.01325870
6272.00   0.51209170   0.01324036
6274.00   0.52097577   0.01330581
6276.00   0.51893348   0.01336056
6278.00   0.52457952   0.01343813
6280.00   0.54331177   0.01356205
6282.00   0.55206865   0.01366320
6284.00   0.54851764   0.01371344
6286.00   0.54900509   0.01373351
6288.00   0.55105877   0.01372896
6290.00   0.55869991   0.01374005
6292.00   0.56450361   0.01393086
6294.00   0.56410187   0.01451916
6296.00   0.56945705   0.01528095
6298.00   0.57121092   0.01596496
6300.00   0.57571673   0.01644910
6302.00   0.59519404   0.01662243
6304.00   0.57046133   0.01626251
6306.00   0.57511818   0.01549139
6308.00   0.57960910   0.01471548
6310.00   0.58029044   0.01418239
6312.00   0.59389549   0.01382686
6314.00   0.60482246   0.01350212
6316.00   0.58529854   0.01319076
6318.00   0.56477571   0.01303898
6320.00   0.56679010   0.01306472
6322.00   0.57531947   0.01315893
6324.00   0.57064170   0.01322990
6326.00   0.57158101   0.01331542
6328.00   0.58151978   0.01337307
6330.00   0.58460850   0.01334097
6332.00   0.57426482   0.01324155
6334.00   0.56900942   0.01306082
6336.00   0.56622648   0.01283439
6338.00   0.56920618   0.01266703
6340.00   0.57851362   0.01264235
6342.00   0.58365375   0.01268291
6344.00   0.57767302   0.01271649
6346.00   0.57483631   0.01272344
6348.00   0.57917529   0.01273544
6350.00   0.58733171   0.01284768
6352.00   0.58764309   0.01296535
6354.00   0.58702517   0.01295952
6356.00   0.57923251   0.01297679
6358.00   0.57828766   0.01316287
6360.00   0.57977992   0.01337032
6362.00   0.57910180   0.01341457
6364.00   0.57583791   0.01334312
6366.00   0.58146113   0.01323825
6368.00   0.58762068   0.01302581
6370.00   0.58010256   0.01268626
6372.00   0.56733835   0.01242253
6374.00   0.56381488   0.01237099
6376.00   0.56229359   0.01242965
6378.00   0.56967479   0.01251373
6380.00   0.57807791   0.01259221
6382.00   0.57492834   0.01263195
6384.00   0.56609684   0.01260705
6386.00   0.56439614   0.01253600
6388.00   0.56799483   0.01245787
6390.00   0.56347942   0.01233304
6392.00   0.55759698   0.01219117
6394.00   0.55389076   0.01210196
6396.00   0.55341095   0.01210203
6398.00   0.55499822   0.01215218
6400.00   0.55076855   0.01218191
6402.00   0.55094612   0.01222011
6404.00   0.55653089   0.01225109
6406.00   0.55859977   0.01224659
6408.00   0.55741256   0.01221122
6410.00   0.55045265   0.01218613
6412.00   0.54847068   0.01217377
6414.00   0.54522800   0.01215564
6416.00   0.54754227   0.01214665
6418.00   0.54293442   0.01210079
6420.00   0.53733838   0.01200725
6422.00   0.53114772   0.01190985
6424.00   0.52176279   0.01181075
6426.00   0.51147097   0.01172609
6428.00   0.51016265   0.01168247
6430.00   0.51137882   0.01165553
6432.00   0.50325638   0.01163260
6434.00   0.49989375   0.01164886
6436.00   0.50182182   0.01165469
6438.00   0.49834034   0.01160536
6440.00   0.49003842   0.01155711
6442.00   0.49975979   0.01161332
6444.00   0.50894916   0.01168063
6446.00   0.51364428   0.01173060
6448.00   0.52027005   0.01178741
6450.00   0.52606440   0.01186189
6452.00   0.52625728   0.01191405
6454.00   0.52930546   0.01196150
6456.00   0.53071254   0.01200075
6458.00   0.52631694   0.01206689
6460.00   0.52303386   0.01219513
6462.00   0.52351540   0.01236097
6464.00   0.52836055   0.01251592
6466.00   0.52738774   0.01260837
6468.00   0.52273822   0.01259441
6470.00   0.51756084   0.01245576
6472.00   0.51115650   0.01226603
6474.00   0.50746959   0.01208672
6476.00   0.50792009   0.01193153
6478.00   0.50792545   0.01178567
6480.00   0.51050562   0.01170041
6482.00   0.51524425   0.01166402
6484.00   0.51117462   0.01161263
6486.00   0.50938755   0.01157325
6488.00   0.51487809   0.01161706
6490.00   0.51246858   0.01170515
6492.00   0.50450295   0.01187898
6494.00   0.51144445   0.01216855
6496.00   0.51887870   0.01242204
6498.00   0.52804178   0.01261385
6500.00   0.53439945   0.01276454
6502.00   0.53918827   0.01279546
6504.00   0.53885132   0.01262814
6506.00   0.53669405   0.01238852
6508.00   0.53925568   0.01222364
6510.00   0.54070419   0.01207293
6512.00   0.52865130   0.01188808
6514.00   0.52272314   0.01177554
6516.00   0.53500968   0.01179839
6518.00   0.53899968   0.01184345
6520.00   0.53506839   0.01187582
6522.00   0.53807288   0.01192216
6524.00   0.54285115   0.01197619
6526.00   0.54045343   0.01204850
6528.00   0.53637248   0.01216913
6530.00   0.53038168   0.01226556
6532.00   0.51728147   0.01227588
6534.00   0.51975197   0.01228147
6536.00   0.53176278   0.01226472
6538.00   0.54282695   0.01220591
6540.00   0.54840446   0.01212149
6542.00   0.54514790   0.01206747
6544.00   0.53733581   0.01205579
6546.00   0.54691213   0.01219264
6548.00   0.56025857   0.01239203
6550.00   0.56652290   0.01262850
6552.00   0.57856631   0.01301868
6554.00   0.58965987   0.01293099
6556.00   0.58319336   0.01283564
6558.00   0.57699639   0.01276980
6560.00   0.57768589   0.01265579
6562.00   0.56688982   0.01250092
6564.00   0.55907995   0.01246786
6566.00   0.56002635   0.01246588
6568.00   0.55943245   0.01232903
6570.00   0.55083829   0.01221318
6572.00   0.54563838   0.01225529
6574.00   0.53819460   0.01234176
6576.00   0.52320361   0.01231968
6578.00   0.51798445   0.01230028
6580.00   0.53326041   0.01232991
6582.00   0.55484962   0.01225981
6584.00   0.56126988   0.01211187
6586.00   0.56449515   0.01204133
6588.00   0.59058708   0.01214293
6590.00   0.62027985   0.01229504
6592.00   0.63715643   0.01242528
6594.00   0.64746112   0.01250381
6596.00   0.65346414   0.01254831
6598.00   0.66067314   0.01263419
6600.00   0.66999727   0.01277197
6602.00   0.68531829   0.01294652
6604.00   0.69561702   0.01317276
6606.00   0.71373266   0.01299336
6608.00   0.71924251   0.01278324
6610.00   0.72129494   0.01268380
6612.00   0.72185278   0.01260052
6614.00   0.72941732   0.01258227
6616.00   0.72765803   0.01254250
6618.00   0.72303277   0.01251138
6620.00   0.72087795   0.01252114
6622.00   0.73195124   0.01262559
6624.00   0.74595213   0.01275202
6626.00   0.75911349   0.01290722
6628.00   0.76775146   0.01292443
6630.00   0.76500177   0.01291132
6632.00   0.75061059   0.01285137
6634.00   0.74137527   0.01257145
6636.00   0.76649481   0.01297253
6638.00   0.90076888   0.01573971
6640.00   0.99828142   0.02116936
6642.00   0.92815351   0.02419396
6644.00   1.43740964   0.02195800
6646.00   1.39607275   0.02112720
6648.00   1.24836242   0.01798636
6650.00   0.99162626   0.01502288
6652.00   0.76474363   0.01262368
6654.00   0.69006127   0.01209971
6656.00   0.68667179   0.01212688
6658.00   0.72037435   0.01232409
6660.00   0.76182669   0.01259788
6662.00   0.79904747   0.01284856
6664.00   0.82684994   0.01306095
6666.00   0.83580589   0.01313340
6668.00   0.81831282   0.01304095
6670.00   0.77174091   0.01275112
6672.00   0.71321791   0.01239311
6674.00   0.67025566   0.01209808
6676.00   0.66065961   0.01197138
6678.00   0.66103220   0.01193564
6680.00   0.66098106   0.01192497
6682.00   0.65451211   0.01188688
6684.00   0.64734197   0.01184126
6686.00   0.65014458   0.01181677
6688.00   0.64881390   0.01178077
6690.00   0.64476484   0.01173704
6692.00   0.63877273   0.01172388
6694.00   0.63876039   0.01174365
6696.00   0.62912822   0.01172262
6698.00   0.62388819   0.01172032
6700.00   0.62379736   0.01175573
6702.00   0.63403994   0.01188374
6704.00   0.63573766   0.01198498
6706.00   0.62550944   0.01200033
6708.00   0.60860986   0.01193083
6710.00   0.60422832   0.01188028
6712.00   0.60366088   0.01180635
6714.00   0.60175848   0.01169888
6716.00   0.60164022   0.01161469
6718.00   0.59955931   0.01155596
6720.00   0.59972662   0.01150565
6722.00   0.60167414   0.01146096
6724.00   0.60561484   0.01143051
6726.00   0.60228252   0.01140725
6728.00   0.59091306   0.01137046
6730.00   0.58530933   0.01133730
6732.00   0.58785915   0.01133551
6734.00   0.58754683   0.01132526
6736.00   0.58750021   0.01131271
6738.00   0.58542085   0.01129844
6740.00   0.58430392   0.01129424
6742.00   0.58447641   0.01126636
6744.00   0.58367652   0.01121270
6746.00   0.57811320   0.01113627
6748.00   0.57764822   0.01109438
6750.00   0.58496898   0.01111005
6752.00   0.58971292   0.01114234
6754.00   0.59138370   0.01113173
6756.00   0.58696824   0.01108984
6758.00   0.58140129   0.01106033
6760.00   0.58387518   0.01105111
6762.00   0.58496761   0.01102493
6764.00   0.57733148   0.01096526
6766.00   0.57475775   0.01093407
6768.00   0.58830625   0.01096715
6770.00   0.59249288   0.01099018
6772.00   0.58546543   0.01098256
6774.00   0.57652050   0.01095481
6776.00   0.56959057   0.01090940
6778.00   0.55923963   0.01085142
6780.00   0.56573021   0.01084614
6782.00   0.57566470   0.01086302
6784.00   0.57863194   0.01087266
6786.00   0.57548302   0.01086965
6788.00   0.57929164   0.01086586
6790.00   0.58007598   0.01083976
6792.00   0.57719928   0.01081834
6794.00   0.57970363   0.01084843
6796.00   0.59081310   0.01089731
6798.00   0.60496974   0.01095093
6800.00   0.61219722   0.01097417
6802.00   0.60916191   0.01095530
6804.00   0.60225368   0.01089750
6806.00   0.58927155   0.01082012
6808.00   0.58634585   0.01079013
6810.00   0.58780932   0.01079817
6812.00   0.59718305   0.01085217
6814.00   0.60143989   0.01090102
6816.00   0.59984952   0.01090281
6818.00   0.58947104   0.01083099
6820.00   0.57640368   0.01082642
6822.00   0.56699806   0.01102183
6824.00   0.55496073   0.01142655
6826.00   0.54945880   0.01190038
6828.00   0.54852653   0.01236245
6830.00   0.54865927   0.01271365
6832.00   0.54578739   0.01277778
6834.00   0.54947084   0.01252630
6836.00   0.55001128   0.01214914
6838.00   0.54773545   0.01173213
6840.00   0.54950112   0.01132910
6842.00   0.55394369   0.01101339
6844.00   0.56120473   0.01087581
6846.00   0.55924886   0.01077170
6848.00   0.55357164   0.01065212
6850.00   0.55345678   0.01056308
6852.00   0.55454212   0.01051833
6854.00   0.55428511   0.01049684
6856.00   0.56058127   0.01070483
6858.00   0.56977105   0.01127213
6860.00   0.56882876   0.01193262
6862.00   0.55914313   0.01249913
6864.00   0.55351394   0.01309384
6866.00   0.55058247   0.01371604
6868.00   0.54785955   0.01397090
6870.00   0.54932314   0.01364832
6872.00   0.54807103   0.01304118
6874.00   0.55429178   0.01261299
6876.00   0.56505030   0.01229197
6878.00   0.56973511   0.01192941
6880.00   0.56765860   0.01162517
6882.00   0.56653476   0.01153328
6884.00   0.55829614   0.01159503
6886.00   0.55667478   0.01173325
6888.00   0.55914670   0.01184104
6890.00   0.55759650   0.01187953
6892.00   0.55682772   0.01183117
6894.00   0.56445074   0.01174976
6896.00   0.56649929   0.01163635
6898.00   0.56917876   0.01158180
6900.00   0.57043225   0.01157939
6902.00   0.56369942   0.01151259
6904.00   0.55521327   0.01137389
6906.00   0.55471170   0.01133301
6908.00   0.56073219   0.01145661
6910.00   0.56732160   0.01161568
6912.00   0.56310695   0.01160847
6914.00   0.55870038   0.01152868
6916.00   0.56083274   0.01154102
6918.00   0.56080753   0.01162689
6920.00   0.55613959   0.01169660
6922.00   0.55394095   0.01171588
6924.00   0.55644274   0.01172348
6926.00   0.55252838   0.01161319
6928.00   0.54819632   0.01132824
6930.00   0.54743463   0.01093914
6932.00   0.54530412   0.01071083
6934.00   0.55469465   0.01084607
6936.00   0.56341887   0.01108307
6938.00   0.55369735   0.01116160
6940.00   0.54576516   0.01118581
6942.00   0.55057973   0.01139938
6944.00   0.55259079   0.01169651
6946.00   0.55258060   0.01189655
6948.00   0.55896688   0.01197225
6950.00   0.56079197   0.01197874
6952.00   0.55457187   0.01183042
6954.00   0.55920881   0.01145611
6956.00   0.56020778   0.01098013
6958.00   0.56035447   0.01070079
6960.00   0.56130260   0.01066452
6962.00   0.56317025   0.01071856
6964.00   0.56081003   0.01078655
6966.00   0.55982137   0.01090039
6968.00   0.56045586   0.01100609
6970.00   0.55878705   0.01108757
6972.00   0.55018306   0.01125149
6974.00   0.55165702   0.01148673
6976.00   0.56154561   0.01161681
6978.00   0.56943488   0.01161702
6980.00   0.57010001   0.01159808
6982.00   0.56903416   0.01146636
6984.00   0.56840783   0.01118126
6986.00   0.56851888   0.01089796
6988.00   0.56553876   0.01078470
6990.00   0.56640840   0.01079890
6992.00   0.56789917   0.01079851
6994.00   0.56359249   0.01074687
6996.00   0.56060249   0.01072467
6998.00   0.55775887   0.01077992
7000.00   0.55915534   0.01086543
7002.00   0.56181383   0.01091303
7004.00   0.56025952   0.01097846
7006.00   0.55349070   0.01109347
7008.00   0.55623740   0.01120151
7010.00   0.55652636   0.01119193
7012.00   0.55000407   0.01112241
7014.00   0.54147834   0.01103204
7016.00   0.53820735   0.01089277
7018.00   0.53940099   0.01069782
7020.00   0.54310238   0.01057835
7022.00   0.55034727   0.01057693
7024.00   0.55258745   0.01061814
7026.00   0.55133301   0.01066360
7028.00   0.54579359   0.01069151
7030.00   0.54658383   0.01070893
7032.00   0.54960972   0.01073108
7034.00   0.54989654   0.01076681
7036.00   0.55025035   0.01079700
7038.00   0.55239284   0.01080441
7040.00   0.55505842   0.01084376
7042.00   0.55426097   0.01095062
7044.00   0.55635256   0.01109817
7046.00   0.56481200   0.01122272
7048.00   0.57190567   0.01128154
7050.00   0.56617135   0.01127369
7052.00   0.56308013   0.01120573
7054.00   0.56527060   0.01108313
7056.00   0.56726944   0.01095768
7058.00   0.56703323   0.01092288
7060.00   0.56706816   0.01095976
7062.00   0.56742173   0.01100231
7064.00   0.57261002   0.01102295
7066.00   0.57555485   0.01103769
7068.00   0.56876856   0.01100955
7070.00   0.56329435   0.01098836
7072.00   0.56872767   0.01101812
7074.00   0.57611090   0.01108226
7076.00   0.58005476   0.01116899
7078.00   0.57726693   0.01117468
7080.00   0.57700372   0.01116754
7082.00   0.57430118   0.01116785
7084.00   0.56936139   0.01119636
7086.00   0.56592661   0.01122647
7088.00   0.56535769   0.01122392
7090.00   0.56145358   0.01116856
7092.00   0.55838877   0.01111054
7094.00   0.56623882   0.01106999
7096.00   0.57322770   0.01100800
7098.00   0.57334584   0.01094670
7100.00   0.56810641   0.01088699
7102.00   0.56382638   0.01082648
7104.00   0.56282967   0.01081540
7106.00   0.56714231   0.01085501
7108.00   0.56259733   0.01084353
7110.00   0.55341148   0.01079457
7112.00   0.55507541   0.01082476
7114.00   0.56791240   0.01091887
7116.00   0.57346433   0.01093949
7118.00   0.56557351   0.01089303
7120.00   0.55940562   0.01088429
7122.00   0.56063741   0.01093887
7124.00   0.56340104   0.01099901
7126.00   0.56404614   0.01105665
7128.00   0.56584424   0.01108643
7130.00   0.56937468   0.01109840
7132.00   0.57157671   0.01108538
7134.00   0.57073528   0.01105442
7136.00   0.56892371   0.01101180
7138.00   0.56866693   0.01098943
7140.00   0.56385428   0.01099506
7142.00   0.55494672   0.01102198
7144.00   0.54796880   0.01104361
7146.00   0.54253441   0.01100056
7148.00   0.53804183   0.01090370
7150.00   0.53641897   0.01080904
7152.00   0.53904039   0.01074367
7154.00   0.54335421   0.01074163
7156.00   0.54344130   0.01077767
7158.00   0.54262704   0.01084250
7160.00   0.54283923   0.01089371
7162.00   0.54999787   0.01098518
7164.00   0.55824143   0.01108030
7166.00   0.55810666   0.01109691
7168.00   0.54654032   0.01106558
7170.00   0.53802443   0.01106530
7172.00   0.53399843   0.01110816
7174.00   0.53168911   0.01110565
7176.00   0.52627420   0.01107737
7178.00   0.51879597   0.01103243
7180.00   0.51373768   0.01100964
7182.00   0.51677537   0.01100537
7184.00   0.52131552   0.01101610
7186.00   0.52260512   0.01101956
7188.00   0.52455258   0.01102014
7190.00   0.52683562   0.01099790
7192.00   0.53474498   0.01099152
7194.00   0.53307891   0.01096418
7196.00   0.52409744   0.01090834
7198.00   0.51574206   0.01086773
7200.00   0.51992649   0.01089794
7202.00   0.52542776   0.01094920
7204.00   0.52712744   0.01093000
7206.00   0.53377897   0.01085468
7208.00   0.54058337   0.01082466
7210.00   0.53908157   0.01081408
7212.00   0.52931738   0.01071974
7214.00   0.52465057   0.01059558
7216.00   0.52189976   0.01055915
7218.00   0.51441449   0.01056798
7220.00   0.51213747   0.01058255
7222.00   0.51556420   0.01061964
7224.00   0.51538247   0.01067991
7226.00   0.51526833   0.01074037
7228.00   0.51807958   0.01077049
7230.00   0.52142519   0.01082484
7232.00   0.52498019   0.01117581
7234.00   0.52487826   0.01216087
7236.00   0.51411152   0.01349612
7238.00   0.50873208   0.01476034
7240.00   0.50372779   0.01574023
7242.00   0.49206862   0.01630287
7244.00   0.49909803   0.01611967
7246.00   0.50747579   0.01531067
7248.00   0.49986902   0.01431041
7250.00   0.49246812   0.01333828
7252.00   0.50575352   0.01241022
7254.00   0.51037794   0.01179622
7256.00   0.50973582   0.01155374
7258.00   0.51227671   0.01136283
7260.00   0.52103645   0.01109282
7262.00   0.53169066   0.01095652
7264.00   0.53750342   0.01094300
7266.00   0.53862906   0.01097667
7268.00   0.53801972   0.01124314
7270.00   0.53589231   0.01220286
7272.00   0.52386630   0.01361340
7274.00   0.52771640   0.01464165
7276.00   0.54380882   0.01509250
7278.00   0.53969145   0.01522525
7280.00   0.53481728   0.01500182
7282.00   0.54020375   0.01406363
7284.00   0.54610902   0.01303027
7286.00   0.54387623   0.01254096
7288.00   0.54799342   0.01237076
7290.00   0.54487318   0.01195853
7292.00   0.54122305   0.01154842
7294.00   0.53876680   0.01133450
7296.00   0.54109281   0.01132122
7298.00   0.54096788   0.01153234
7300.00   0.54300696   0.01181889
7302.00   0.55295444   0.01193330
7304.00   0.55186272   0.01189173
7306.00   0.54285651   0.01182042
7308.00   0.54025203   0.01177017
7310.00   0.54559642   0.01211309
7312.00   0.53468108   0.01287936
7314.00   0.54211766   0.01356424
7316.00   0.54970044   0.01372883
7318.00   0.54638302   0.01355732
7320.00   0.54209876   0.01301899
7322.00   0.55775690   0.01222944
7324.00   0.55724496   0.01171869
7326.00   0.53442574   0.01180086
7328.00   0.53891724   0.01201232
7330.00   0.54421383   0.01205904
7332.00   0.53754133   0.01200717
7334.00   0.53126478   0.01216342
7336.00   0.52443272   0.01280789
7338.00   0.52559620   0.01353710
7340.00   0.52551126   0.01388368
7342.00   0.52532810   0.01393981
7344.00   0.52265924   0.01362483
7346.00   0.52036405   0.01261253
7348.00   0.52777416   0.01134880
7350.00   0.53415209   0.01071387
7352.00   0.54974747   0.01090521
7354.00   0.54675871   0.01142870
7356.00   0.54764766   0.01182132
7358.00   0.54806787   0.01189577
7360.00   0.54539043   0.01189400
7362.00   0.54789180   0.01212568
7364.00   0.54917163   0.01265504
7366.00   0.54969811   0.01315802
7368.00   0.55258900   0.01331661
7370.00   0.55699420   0.01338989
7372.00   0.56178361   0.01326710
7374.00   0.55515987   0.01251396
7376.00   0.54980898   0.01132777
7378.00   0.54068643   0.01055801
7380.00   0.55127263   0.01043791
7382.00   0.56663263   0.01052022
7384.00   0.57003331   0.01060872
7386.00   0.56350279   0.01082308
7388.00   0.57039350   0.01125353
7390.00   0.57809669   0.01154769
7392.00   0.57375228   0.01159731
7394.00   0.57838368   0.01171193
7396.00   0.58006698   0.01207786
7398.00   0.57652897   0.01239995
7400.00   0.57772809   0.01250638
7402.00   0.57724363   0.01247685
7404.00   0.57612115   0.01238852
7406.00   0.57995230   0.01200319
7408.00   0.58289003   0.01129459
7410.00   0.57871479   0.01068819
7412.00   0.57348448   0.01048041
7414.00   0.57144660   0.01048269
7416.00   0.57000393   0.01049062
7418.00   0.57163137   0.01048914
7420.00   0.56957823   0.01045063
7422.00   0.57129675   0.01046972
7424.00   0.56883025   0.01061734
7426.00   0.56664735   0.01084084
7428.00   0.56030244   0.01094697
7430.00   0.56275791   0.01102166
7432.00   0.56841230   0.01125649
7434.00   0.56499976   0.01153638
7436.00   0.56011772   0.01160083
7438.00   0.55873328   0.01152421
7440.00   0.56125736   0.01147475
7442.00   0.55664438   0.01129281
7444.00   0.54883116   0.01084263
7446.00   0.54069877   0.01037815
7448.00   0.54095465   0.01017377
7450.00   0.54615593   0.01016440
7452.00   0.55102009   0.01019152
7454.00   0.55071288   0.01021897
7456.00   0.54658300   0.01026932
7458.00   0.54723257   0.01039868
7460.00   0.55147916   0.01058894
7462.00   0.55372661   0.01077374
7464.00   0.55917048   0.01096127
7466.00   0.56106353   0.01119439
7468.00   0.55484796   0.01143596
7470.00   0.54873371   0.01157797
7472.00   0.54565722   0.01161173
7474.00   0.53915399   0.01167443
7476.00   0.53297096   0.01177773
7478.00   0.53503197   0.01182991
7480.00   0.53581119   0.01179150
7482.00   0.53328681   0.01171356
7484.00   0.53312802   0.01152862
7486.00   0.53542596   0.01121435
7488.00   0.53455859   0.01088293
7490.00   0.53769398   0.01065748
7492.00   0.54587525   0.01053702
7494.00   0.55017585   0.01050567
7496.00   0.54614353   0.01049691
7498.00   0.54640430   0.01044985
7500.00   0.55168980   0.01035432
7502.00   0.55286640   0.01026540
7504.00   0.54583412   0.01020825
7506.00   0.54549187   0.01019748
7508.00   0.54928654   0.01020356
7510.00   0.55104411   0.01022388
7512.00   0.54511636   0.01027064
7514.00   0.55504858   0.01038821
7516.00   0.56743145   0.01067546
7518.00   0.56573641   0.01127727
7520.00   0.55509472   0.01202179
7522.00   0.56394398   0.01251791
7524.00   0.57359892   0.01273629
7526.00   0.57059717   0.01280728
7528.00   0.57285529   0.01259276
7530.00   0.58425003   0.01195894
7532.00   0.58256269   0.01131900
7534.00   0.57248473   0.01099748
7536.00   0.56941319   0.01083078
7538.00   0.57479149   0.01067041
7540.00   0.57708317   0.01059269
7542.00   0.58641362   0.01062942
7544.00   0.58617789   0.01060871
7546.00   0.57866836   0.01050850
7548.00   0.57405478   0.01042977
7550.00   0.57126462   0.01045420
7552.00   0.57163048   0.01060667
7554.00   0.57142186   0.01076981
7556.00   0.57168466   0.01085444
7558.00   0.56519204   0.01085031
7560.00   0.56839299   0.01086705
7562.00   0.57415408   0.01080281
7564.00   0.57118630   0.01076118
7566.00   0.56728697   0.01102761
7568.00   0.56788516   0.01158272
7570.00   0.57393670   0.01201332
7572.00   0.57702017   0.01211639
7574.00   0.57386464   0.01197463
7576.00   0.56168008   0.01156674
7578.00   0.56643146   0.01102741
7580.00   0.56880504   0.01072353
7582.00   0.56749731   0.01080548
7584.00   0.57018197   0.01094558
7586.00   0.56897861   0.01097565
7588.00   0.56152266   0.01105364
7590.00   0.55528957   0.01125681
7592.00   0.55148685   0.01181751
7594.00   0.55530435   0.01324325
7596.00   0.57213610   0.01583472
7598.00   0.57961106   0.01934732
7600.00   0.57265770   0.02322591
7602.00   0.57370096   0.02615418
7604.00   0.59276462   0.02700968
7606.00   0.58118504   0.02551678
7608.00   0.55420268   0.02306290
7610.00   0.55507034   0.02061309
7612.00   0.57086670   0.01839863
7614.00   0.58010042   0.01649159
7616.00   0.57484812   0.01494382
7618.00   0.55490506   0.01387799
7620.00   0.54174072   0.01368680
7622.00   0.55397427   0.01449240
7624.00   0.56782085   0.01585518
7626.00   0.56566602   0.01698268
7628.00   0.56477064   0.01739816
7630.00   0.55764365   0.01727199
7632.00   0.55541998   0.01684480
7634.00   0.56691301   0.01617181
7636.00   0.57161582   0.01529233
7638.00   0.56072217   0.01458144
7640.00   0.55851877   0.01418451
7642.00   0.55280930   0.01388689
7644.00   0.55163598   0.01358023
7646.00   0.55869430   0.01332918
7648.00   0.55786669   0.01323460
7650.00   0.55714190   0.01313191
7652.00   0.55851132   0.01290087
7654.00   0.56212503   0.01270514
7656.00   0.56655186   0.01269231
7658.00   0.56508452   0.01272131
7660.00   0.55916119   0.01263107
7662.00   0.55517644   0.01249293
7664.00   0.55706912   0.01237313
7666.00   0.55561477   0.01212307
7668.00   0.56021070   0.01169133
7670.00   0.55771977   0.01126596
7672.00   0.55385095   0.01100001
7674.00   0.55265611   0.01084852
7676.00   0.54835266   0.01074998
7678.00   0.54438162   0.01072143
7680.00   0.54173476   0.01074161
7682.00   0.53798914   0.01077383
7684.00   0.53351802   0.01075085
7686.00   0.53049845   0.01075043
7688.00   0.52014041   0.01075246
7690.00   0.52187282   0.01078869
7692.00   0.52923572   0.01089104
7694.00   0.52516347   0.01106792
7696.00   0.52480370   0.01125244
7698.00   0.53226072   0.01133835
7700.00   0.53201801   0.01130559
7702.00   0.52221978   0.01111677
7704.00   0.52969098   0.01099185
7706.00   0.52622819   0.01140575
7708.00   0.52107149   0.01253012
7710.00   0.51424521   0.01403389
7712.00   0.50961947   0.01555782
7714.00   0.51093239   0.01660394
7716.00   0.51484489   0.01670250
7718.00   0.51410532   0.01605776
7720.00   0.51207298   0.01509222
7722.00   0.51709974   0.01392915
7724.00   0.51821750   0.01277053
7726.00   0.52126962   0.01209814
7728.00   0.52333480   0.01182596
7730.00   0.52580667   0.01155221
7732.00   0.52048314   0.01115940
7734.00   0.50888956   0.01087396
7736.00   0.50564551   0.01081741
7738.00   0.51292235   0.01083659
7740.00   0.51787502   0.01075703
7742.00   0.51604712   0.01084055
7744.00   0.50998807   0.01175685
7746.00   0.50980037   0.01336621
7748.00   0.51280141   0.01462422
7750.00   0.51725429   0.01509609
7752.00   0.50184011   0.01518823
7754.00   0.49346629   0.01501256
7756.00   0.49976134   0.01420650
7758.00   0.51696080   0.01310058
7760.00   0.52076870   0.01241941
7762.00   0.51457828   0.01220016
7764.00   0.51871210   0.01186752
7766.00   0.53135234   0.01138796
7768.00   0.54538417   0.01113416
7770.00   0.53618032   0.01120053
7772.00   0.53926015   0.01141160
7774.00   0.54686183   0.01173044
7776.00   0.55730826   0.01212999
7778.00   0.55891937   0.01229574
7780.00   0.55341899   0.01214217
7782.00   0.53988230   0.01195217
7784.00   0.53555334   0.01175415
7786.00   0.53958803   0.01167949
7788.00   0.53655314   0.01214954
7790.00   0.52252692   0.01321986
7792.00   0.52730447   0.01401562
7794.00   0.52618670   0.01425418
7796.00   0.51229376   0.01412139
7798.00   0.50622028   0.01348062
7800.00   0.50817674   0.01224162
7802.00   0.50579900   0.01140190
7804.00   0.49099684   0.01154907
7806.00   0.49443746   0.01204291
7808.00   0.49697986   0.01225610
7810.00   0.49695358   0.01228121
7812.00   0.49292195   0.01209672
7814.00   0.50053889   0.01207005
7816.00   0.49629366   0.01279415
7818.00   0.48593724   0.01401921
7820.00   0.50508052   0.01478600
7822.00   0.50679761   0.01495469
7824.00   0.50025219   0.01473853
7826.00   0.50334573   0.01384519
7828.00   0.52900571   0.01232092
7830.00   0.52026772   0.01110707
7832.00   0.52638108   0.01081858
7834.00   0.54191452   0.01105565
7836.00   0.53800452   0.01156181
7838.00   0.52638060   0.01205181
7840.00   0.53145486   0.01230299
7842.00   0.52595073   0.01236058
7844.00   0.52435559   0.01246679
7846.00   0.53531128   0.01293608
7848.00   0.52903903   0.01404428
7850.00   0.52203113   0.01531143
7852.00   0.52993149   0.01615928
7854.00   0.54148477   0.01668699
7856.00   0.54173440   0.01686859
7858.00   0.54551697   0.01614300
7860.00   0.54294640   0.01475087
7862.00   0.52685004   0.01381737
7864.00   0.53016365   0.01374572
7866.00   0.52685553   0.01383250
7868.00   0.51992112   0.01374758
7870.00   0.51807916   0.01368413
7872.00   0.52292180   0.01374882
7874.00   0.53089672   0.01377534
7876.00   0.54306513   0.01359441
7878.00   0.54580206   0.01335359
7880.00   0.53944576   0.01320715
7882.00   0.53568047   0.01327662
7884.00   0.53098178   0.01358300
7886.00   0.53670436   0.01394125
7888.00   0.54337615   0.01400756
7890.00   0.54437310   0.01392492
7892.00   0.52711451   0.01371717
7894.00   0.52211326   0.01314350
7896.00   0.53437465   0.01217547
7898.00   0.53410143   0.01133637
7900.00   0.52917868   0.01096356
7902.00   0.52099419   0.01083189
7904.00   0.52400285   0.01084064
7906.00   0.53178406   0.01153321
7908.00   0.52679968   0.01322243
7910.00   0.52340055   0.01497355
7912.00   0.52995628   0.01603813
7914.00   0.53383797   0.01666009
7916.00   0.51241595   0.01714830
7918.00   0.50912988   0.01680988
7920.00   0.51670820   0.01555819
7922.00   0.52455163   0.01433874
7924.00   0.51366669   0.01377692
7926.00   0.50804406   0.01350365
7928.00   0.50178343   0.01318914
7930.00   0.50460058   0.01299134
7932.00   0.50701523   0.01293546
7934.00   0.50949651   0.01276902
7936.00   0.51692778   0.01224503
7938.00   0.52531534   0.01150484
7940.00   0.53119987   0.01105407
7942.00   0.52929544   0.01113991
7944.00   0.52294058   0.01160956
7946.00   0.51622647   0.01207269
7948.00   0.52302569   0.01229484
7950.00   0.52792418   0.01228712
7952.00   0.52495998   0.01208761
7954.00   0.51812124   0.01158840
7956.00   0.51425654   0.01111643
7958.00   0.51601988   0.01157711
7960.00   0.51704717   0.01296620
7962.00   0.52045292   0.01427863
7964.00   0.52084476   0.01483418
7966.00   0.51075983   0.01491876
7968.00   0.50851393   0.01448276
7970.00   0.52378947   0.01346162
7972.00   0.53019834   0.01241382
7974.00   0.51453751   0.01226342
7976.00   0.51061302   0.01273309
7978.00   0.51949662   0.01308504
7980.00   0.51498574   0.01314414
7982.00   0.51117569   0.01293382
7984.00   0.52027375   0.01247717
7986.00   0.53056890   0.01234803
7988.00   0.52719831   0.01316331
7990.00   0.51334864   0.01445043
7992.00   0.52448934   0.01518812
7994.00   0.51742989   0.01532690
7996.00   0.50429863   0.01504070
7998.00   0.49848667   0.01401903
8000.00   0.51956171   0.01243077
8002.00   0.51292133   0.01114620
8004.00   0.51144010   0.01072208
8006.00   0.51026607   0.01070933
8008.00   0.51158255   0.01106080
8010.00   0.51330560   0.01168331
8012.00   0.52322155   0.01218096
8014.00   0.52217382   0.01233610
8016.00   0.50888413   0.01229859
8018.00   0.50911808   0.01235622
8020.00   0.51672715   0.01284141
8022.00   0.50206351   0.01364204
8024.00   0.49161455   0.01421914
8026.00   0.50228006   0.01448146
8028.00   0.50890791   0.01443246
8030.00   0.49930540   0.01377069
8032.00   0.50050455   0.01245891
8034.00   0.49831095   0.01121427
8036.00   0.50148255   0.01060922
8038.00   0.50695515   0.01045568
8040.00   0.50904387   0.01042807
8042.00   0.50704318   0.01037491
8044.00   0.50944513   0.01045022
8046.00   0.50930053   0.01077090
8048.00   0.50554043   0.01117634
8050.00   0.51023382   0.01145579
8052.00   0.51037830   0.01152019
8054.00   0.51490134   0.01162477
8056.00   0.51555765   0.01194072
8058.00   0.52111858   0.01234179
8060.00   0.51787114   0.01257078
8062.00   0.50646096   0.01268688
8064.00   0.50898939   0.01263357
8066.00   0.51859039   0.01233752
8068.00   0.52487224   0.01166286
8070.00   0.52126235   0.01098243
8072.00   0.51617569   0.01066680
8074.00   0.52529043   0.01069367
8076.00   0.53844291   0.01068630
8078.00   0.53529721   0.01067045
8080.00   0.51772040   0.01074259
8082.00   0.50508505   0.01082735
8084.00   0.50856858   0.01069393
8086.00   0.51848912   0.01062325
8088.00   0.52455431   0.01072889
8090.00   0.52558380   0.01089834
8092.00   0.52464670   0.01094052
8094.00   0.52353114   0.01098889
8096.00   0.51681596   0.01116013
8098.00   0.51236963   0.01141670
8100.00   0.51594096   0.01157987
8102.00   0.52319527   0.01164917
8104.00   0.51972836   0.01160212
8106.00   0.51451588   0.01142569
8108.00   0.52177167   0.01116102
8110.00   0.53312236   0.01090143
8112.00   0.53143889   0.01073255
8114.00   0.52321559   0.01064490
8116.00   0.52218062   0.01056649
8118.00   0.51911265   0.01045250
8120.00   0.51360357   0.01040461
8122.00   0.51444334   0.01043312
8124.00   0.51846039   0.01045477
8126.00   0.51835346   0.01042439
8128.00   0.51217097   0.01040879
8130.00   0.50590968   0.01042185
8132.00   0.51156396   0.01058022
8134.00   0.52134031   0.01085450
8136.00   0.52980202   0.01107401
8138.00   0.52395827   0.01105659
8140.00   0.51234651   0.01103179
8142.00   0.50915271   0.01114347
8144.00   0.51563174   0.01128037
8146.00   0.51746410   0.01125375
8148.00   0.51587903   0.01116363
8150.00   0.51567554   0.01111490
8152.00   0.51580971   0.01104346
8154.00   0.51531148   0.01086849
8156.00   0.51881188   0.01077959
8158.00   0.52164799   0.01085671
8160.00   0.52844298   0.01101436
8162.00   0.53044647   0.01116831
8164.00   0.52636534   0.01120861
8166.00   0.51385093   0.01109146
8168.00   0.50967455   0.01103483
8170.00   0.50431973   0.01105207
8172.00   0.49746394   0.01110794
8174.00   0.50094575   0.01133598
8176.00   0.51689601   0.01192900
8178.00   0.51711440   0.01280177
8180.00   0.50423205   0.01357695
8182.00   0.50277835   0.01408736
8184.00   0.50967509   0.01438648
8186.00   0.51020223   0.01458879
8188.00   0.51327097   0.01482316
8190.00   0.50357890   0.01510124
8192.00   0.49308619   0.01531773
8194.00   0.49072906   0.01541189
8196.00   0.49780503   0.01542479
8198.00   0.49866721   0.01512237
8200.00   0.49681461   0.01438317
8202.00   0.49972472   0.01343295
8204.00   0.50336605   0.01263573
8206.00   0.50331372   0.01214700
8208.00   0.50428414   0.01187916
8210.00   0.51061940   0.01168415
8212.00   0.51340586   0.01148690
8214.00   0.50853688   0.01128189
8216.00   0.49973139   0.01112066
8218.00   0.49724808   0.01099818
8220.00   0.50121742   0.01095356
8222.00   0.50485611   0.01099610
8224.00   0.50472838   0.01113192
8226.00   0.51171160   0.01133092
8228.00   0.51666123   0.01149454
8230.00   0.51418573   0.01145650
8232.00   0.50858396   0.01122810
8234.00   0.50453734   0.01094238
8236.00   0.50541538   0.01076201
8238.00   0.50750190   0.01068004
8240.00   0.51158869   0.01071194
8242.00   0.51372194   0.01082052
8244.00   0.51315945   0.01089475
8246.00   0.50877118   0.01082678
8248.00   0.50389904   0.01069188
8250.00   0.50667280   0.01063551
8252.00   0.50776142   0.01064402
8254.00   0.50511736   0.01066994
8256.00   0.50963163   0.01074756
8258.00   0.52106851   0.01082998
8260.00   0.51764524   0.01075269
8262.00   0.50478244   0.01055169
8264.00   0.50449181   0.01045465
8266.00   0.51516569   0.01051511
8268.00   0.52660793   0.01061822
8270.00   0.53237742   0.01076707
8272.00   0.53015375   0.01122783
8274.00   0.52667552   0.01229534
8276.00   0.52438343   0.01374459
8278.00   0.51968044   0.01494735
8280.00   0.52319181   0.01581865
8282.00   0.52620775   0.01663661
8284.00   0.51466888   0.01730886
8286.00   0.50590444   0.01735870
8288.00   0.51155037   0.01686371
8290.00   0.50699568   0.01639632
8292.00   0.49730298   0.01639624
8294.00   0.49735117   0.01657484
8296.00   0.49545375   0.01655004
8298.00   0.49081853   0.01642069
8300.00   0.50213099   0.01625104
8302.00   0.51745450   0.01564035
8304.00   0.51810759   0.01442298
8306.00   0.50143117   0.01324772
8308.00   0.49972215   0.01267065
8310.00   0.50808114   0.01250976
8312.00   0.50413424   0.01238075
8314.00   0.50284618   0.01221946
8316.00   0.51046348   0.01184796
8318.00   0.51617092   0.01133821
8320.00   0.51091200   0.01095076
8322.00   0.51451302   0.01081354
8324.00   0.52273852   0.01071504
8326.00   0.52812052   0.01060224
8328.00   0.52832693   0.01055434
8330.00   0.53062278   0.01059277
8332.00   0.52986574   0.01060801
8334.00   0.52172643   0.01058829
8336.00   0.52372879   0.01129132
8338.00   0.52078861   0.01360784
8340.00   0.50710583   0.01671604
8342.00   0.52196711   0.01878279
8344.00   0.56332350   0.01964299
8346.00   0.53554368   0.02001092
8348.00   0.47303188   0.01978860
8350.00   0.49699092   0.01838871
8352.00   0.51910871   0.01650708
8354.00   0.51467973   0.01534600
8356.00   0.50237530   0.01491029
8358.00   0.52726239   0.01416973
8360.00   0.52221280   0.01362042
8362.00   0.53724152   0.01315547
8364.00   0.51993179   0.01261395
8366.00   0.50974613   0.01229732
8368.00   0.50918967   0.01205095
8370.00   0.51036805   0.01154594
8372.00   0.50907707   0.01098654
8374.00   0.50704622   0.01090173
8376.00   0.49847999   0.01149362
8378.00   0.49432144   0.01242256
8380.00   0.49968430   0.01311093
8382.00   0.50558519   0.01342008
8384.00   0.50527525   0.01341381
8386.00   0.50599080   0.01301788
8388.00   0.50341821   0.01210330
8390.00   0.51612502   0.01140327
8392.00   0.50859076   0.01209227
8394.00   0.49488798   0.01411004
8396.00   0.48575926   0.01606300
8398.00   0.49643144   0.01706682
8400.00   0.47551647   0.01730700
8402.00   0.47233912   0.01688078
8404.00   0.48387876   0.01535976
8406.00   0.49364591   0.01318095
8408.00   0.47282815   0.01188578
8410.00   0.46428156   0.01223344
8412.00   0.46689439   0.01311028
8414.00   0.47175923   0.01362526
8416.00   0.45980927   0.01370385
8418.00   0.44909325   0.01344524
8420.00   0.45709753   0.01271978
8422.00   0.46948847   0.01236804
8424.00   0.45440963   0.01354275
8426.00   0.43159285   0.01584548
8428.00   0.43250731   0.01750986
8430.00   0.42430997   0.01812003
8432.00   0.41532126   0.01799904
8434.00   0.41529068   0.01688871
8436.00   0.41760707   0.01460515
8438.00   0.41871810   0.01218557
8440.00   0.41683745   0.01073982
8442.00   0.41723976   0.01017546
8444.00   0.40990102   0.01013840
8446.00   0.40662351   0.01078395
8448.00   0.39711222   0.01185222
8450.00   0.40426245   0.01268514
8452.00   0.40582600   0.01302779
8454.00   0.40118876   0.01296103
8456.00   0.38809249   0.01254930
8458.00   0.39411476   0.01247676
8460.00   0.37597632   0.01354870
8462.00   0.37791514   0.01508271
8464.00   0.39559832   0.01603160
8466.00   0.39681101   0.01631864
8468.00   0.38649336   0.01597534
8470.00   0.39748311   0.01466717
8472.00   0.41149107   0.01270193
8474.00   0.40582290   0.01109012
8476.00   0.40283108   0.01035470
8478.00   0.40557131   0.01007030
8480.00   0.40224728   0.00986352
8482.00   0.39573982   0.00968116
8484.00   0.39645863   0.00960177
8486.00   0.39688209   0.00990110
8488.00   0.39802644   0.01065772
8490.00   0.39000031   0.01141544
8492.00   0.37837496   0.01186023
8494.00   0.37818286   0.01203196
8496.00   0.39735940   0.01216160
8498.00   0.40887141   0.01249068
8500.00   0.40083531   0.01312237
8502.00   0.39169434   0.01374568
8504.00   0.39785591   0.01410545
8506.00   0.39946342   0.01415254
8508.00   0.40170908   0.01369798
8510.00   0.41032335   0.01261859
8512.00   0.41057327   0.01125303
8514.00   0.40992102   0.01032485
8516.00   0.41938010   0.01000947
8518.00   0.42233264   0.00993395
8520.00   0.41641808   0.00986558
8522.00   0.41806635   0.00981846
8524.00   0.41845727   0.00976918
8526.00   0.41854331   0.00971798
8528.00   0.41984949   0.00966121
8530.00   0.42328992   0.00970049
8532.00   0.41857168   0.00991730
8534.00   0.40763971   0.01027794
8536.00   0.40238401   0.01059943
8538.00   0.40835166   0.01081099
8540.00   0.41461995   0.01099146
8542.00   0.41412583   0.01128234
8544.00   0.41011989   0.01164140
8546.00   0.41307387   0.01191060
8548.00   0.41872123   0.01204284
8550.00   0.42479953   0.01206362
8552.00   0.42934033   0.01184154
8554.00   0.42441002   0.01122893
8556.00   0.42292786   0.01050867
8558.00   0.42486823   0.01001902
8560.00   0.43644270   0.00985374
8562.00   0.44092333   0.00980589
8564.00   0.44233587   0.00978464
8566.00   0.43815699   0.00975465
8568.00   0.43595055   0.00975607
8570.00   0.43743643   0.00980545
8572.00   0.44358194   0.00988483
8574.00   0.44351935   0.00991208
8576.00   0.44374189   0.00990539
8578.00   0.44796643   0.00988761
8580.00   0.45227411   0.00991429
8582.00   0.44918656   0.01001999
8584.00   0.45127097   0.01022797
8586.00   0.45923576   0.01041589
8588.00   0.46894678   0.01054924
8590.00   0.46772170   0.01069874
8592.00   0.45818639   0.01086263
8594.00   0.45390883   0.01091769
8596.00   0.45430219   0.01087442
8598.00   0.44396922   0.01077022
8600.00   0.42953750   0.01059095
8602.00   0.42004290   0.01028349
8604.00   0.41707298   0.00999424
8606.00   0.41552386   0.00991194
8608.00   0.41791400   0.01009877
8610.00   0.42164961   0.01047535
8612.00   0.42643526   0.01101596
8614.00   0.43531954   0.01168360
8616.00   0.43618384   0.01238112
8618.00   0.43311003   0.01307731
8620.00   0.42878917   0.01375875
8622.00   0.41229686   0.01438751
8624.00   0.41773772   0.01498025
8626.00   0.43209922   0.01546511
8628.00   0.44329724   0.01575575
8630.00   0.43457890   0.01579672
8632.00   0.42810097   0.01561758
8634.00   0.42294130   0.01522677
8636.00   0.41374326   0.01462610
8638.00   0.41627559   0.01388495
8640.00   0.41353801   0.01307173
8642.00   0.39944455   0.01242560
8644.00   0.37829998   0.01212482
8646.00   0.37039018   0.01224376
8648.00   0.36301818   0.01272625
8650.00   0.36515173   0.01344892
8652.00   0.37195781   0.01412379
8654.00   0.37540340   0.01465023
8656.00   0.39137220   0.01502294
8658.00   0.40931687   0.01525783
8660.00   0.41567799   0.01535470
8662.00   0.42222062   0.01534589
8664.00   0.44130585   0.01527183
8666.00   0.46296671   0.01512652
8668.00   0.46715510   0.01489032
8670.00   0.46241760   0.01459803
8672.00   0.46030888   0.01420804
8674.00   0.46651474   0.01383818
8676.00   0.46315503   0.01344005
8678.00   0.45837435   0.01301594
8680.00   0.46561900   0.01258306
8682.00   0.47855482   0.01225445
8684.00   0.48008513   0.01192768
8686.00   0.48226342   0.01162345
8688.00   0.49324498   0.01137836
8690.00   0.49982882   0.01116426
8692.00   0.49905154   0.01097244
8694.00   0.49403176   0.01082351
8696.00   0.50422424   0.01078280
8698.00   0.52114379   0.01075626
8700.00   0.52256906   0.01069857
8702.00   0.51994228   0.01067538
8704.00   0.53029984   0.01069109
8706.00   0.53864920   0.01066400
8708.00   0.53637648   0.01055777
8710.00   0.53984028   0.01048038
8712.00   0.54955280   0.01040322
8714.00   0.56243950   0.01034981
8716.00   0.56675881   0.01029995
8718.00   0.56562835   0.01026005
8720.00   0.57702714   0.01029721
8722.00   0.58686858   0.01035582
8724.00   0.58965427   0.01038560
8726.00   0.59066123   0.01038683
8728.00   0.59852076   0.01042836
8730.00   0.60298103   0.01046991
8732.00   0.60723454   0.01049086
8734.00   0.61148870   0.01051178
8736.00   0.61702079   0.01057373
8738.00   0.62727422   0.01066305
8740.00   0.62658745   0.01069209
8742.00   0.62148243   0.01067186
8744.00   0.62366974   0.01068199
8746.00   0.62813562   0.01073313
8748.00   0.62465447   0.01088348
8750.00   0.61919689   0.01086457
8752.00   0.61815518   0.01118423
8754.00   0.62421924   0.01255114
8756.00   0.61975163   0.01445893
8758.00   0.63012761   0.01612327
8760.00   0.62867814   0.01759355
8762.00   0.60411692   0.01905028
8764.00   0.58466536   0.01995248
8766.00   0.58712053   0.01971377
8768.00   0.57252550   0.01892253
8770.00   0.54837781   0.01842428
8772.00   0.54140967   0.01832995
8774.00   0.55521178   0.01831787
8776.00   0.58333874   0.01826700
8778.00   0.60497975   0.01817941
8780.00   0.59577292   0.01765280
8782.00   0.59615082   0.01635819
8784.00   0.59809870   0.01474324
8786.00   0.60340947   0.01377488
8788.00   0.61703831   0.01348774
8790.00   0.61363751   0.01349880
8792.00   0.58847553   0.01351673
8794.00   0.59084427   0.01306863
8796.00   0.58530873   0.01255450
8798.00   0.59604067   0.01177347
8800.00   0.59626776   0.01101913
8802.00   0.59422648   0.01059476
8804.00   0.59846550   0.01066025
8806.00   0.60307568   0.01074159
8808.00   0.61147004   0.01078707
8810.00   0.61922991   0.01080315
8812.00   0.61726493   0.01075914
8814.00   0.60029143   0.01061028
8816.00   0.58711761   0.01039229
8818.00   0.59066826   0.01103004
8820.00   0.58879954   0.01342856
8822.00   0.58022851   0.01694011
8824.00   0.57529157   0.01969907
8826.00   0.59112668   0.02117135
8828.00   0.59592789   0.02191745
8830.00   0.59399438   0.02191550
8832.00   0.57254946   0.02073133
8834.00   0.56713885   0.01897876
8836.00   0.55789262   0.01761939
8838.00   0.56602281   0.01674261
8840.00   0.57889152   0.01570020
8842.00   0.57933480   0.01425869
8844.00   0.57332736   0.01315470
8846.00   0.57350391   0.01281163
8848.00   0.57897252   0.01281310
8850.00   0.57336956   0.01274477
8852.00   0.57328302   0.01256599
8854.00   0.57580048   0.01216298
8856.00   0.58326548   0.01169814
8858.00   0.58735561   0.01154263
8860.00   0.60017818   0.01202747
8862.00   0.58023590   0.01304960
8864.00   0.58186364   0.01412201
8866.00   0.57934433   0.01464595
8868.00   0.56227440   0.01464691
8870.00   0.54809374   0.01424612
8872.00   0.55352151   0.01338681
8874.00   0.54917365   0.01214409
8876.00   0.54523116   0.01122092
8878.00   0.55848956   0.01174662
8880.00   0.54204983   0.01403550
8882.00   0.54074293   0.01655236
8884.00   0.53649420   0.01798137
8886.00   0.52271277   0.01859605
8888.00   0.52351665   0.01854878
8890.00   0.54593629   0.01731374
8892.00   0.54390675   0.01502473
8894.00   0.54055732   0.01308230
8896.00   0.54092938   0.01260651
8898.00   0.52739483   0.01336134
8900.00   0.52285504   0.01425373
8902.00   0.52834827   0.01478149
8904.00   0.52224141   0.01496697
8906.00   0.51534796   0.01463998
8908.00   0.51700193   0.01357555
8910.00   0.52748507   0.01236045
8912.00   0.52835065   0.01275827
8914.00   0.49799991   0.01504364
8916.00   0.48396489   0.01754696
8918.00   0.48196551   0.01910554
8920.00   0.49107042   0.01986390
8922.00   0.49079370   0.01970175
8924.00   0.50434107   0.01816547
8926.00   0.50644726   0.01563100
8928.00   0.50905532   0.01338286
8930.00   0.50744027   0.01204496
8932.00   0.49919233   0.01127295
8934.00   0.50113916   0.01092284
8936.00   0.50269431   0.01128189
8938.00   0.51036519   0.01236927
8940.00   0.50921458   0.01343819
8942.00   0.49939433   0.01405102
8944.00   0.47824463   0.01428102
8946.00   0.47041574   0.01406662
8948.00   0.48299858   0.01326695
8950.00   0.48451117   0.01292379
8952.00   0.47137818   0.01426418
8954.00   0.46477413   0.01645231
8956.00   0.47149006   0.01805112
8958.00   0.45186329   0.01870718
8960.00   0.44493523   0.01881707
8962.00   0.45442915   0.01783744
8964.00   0.46795318   0.01570941
8966.00   0.46207908   0.01332393
8968.00   0.45988020   0.01182232
8970.00   0.45218086   0.01109918
8972.00   0.44790223   0.01076434
8974.00   0.45037594   0.01055638
8976.00   0.44828367   0.01029820
8978.00   0.44190297   0.01015756
8980.00   0.44902503   0.01040801
8982.00   0.45880622   0.01131700
8984.00   0.44866538   0.01253439
8986.00   0.45188385   0.01374329
8988.00   0.46101132   0.01473963
8990.00   0.47668111   0.01480746
8992.00   0.48060393   0.01423945
8994.00   0.47329417   0.01365758
8996.00   0.45128164   0.01422613
8998.00   0.49274802   0.01560704
9000.00   0.50722980   0.01675962
9002.00   0.49034253   0.01731126
9004.00   0.47814131   0.01700376
9006.00   0.50258487   0.01570443
9008.00   0.51563573   0.01385918
9010.00   0.51354796   0.01242008
9012.00   0.52215344   0.01175146
9014.00   0.53476077   0.01152446
9016.00   0.53630459   0.01131374
9018.00   0.52429503   0.01100205
9020.00   0.50981373   0.01069443
9022.00   0.51438314   0.01062905
9024.00   0.51459318   0.01063210
9026.00   0.50944197   0.01052507
9028.00   0.50890857   0.01040431
9030.00   0.50460327   0.01042733
9032.00   0.50005037   0.01074157
9034.00   0.50088692   0.01121498
9036.00   0.50113112   0.01154917
9038.00   0.50100213   0.01174428
9040.00   0.50114471   0.01186173
9042.00   0.50315714   0.01203142
9044.00   0.49455678   0.01239186
9046.00   0.50691164   0.01293009
9048.00   0.51144439   0.01332535
9050.00   0.50177103   0.01346596
9052.00   0.48713002   0.01321448
9054.00   0.49056181   0.01249097
9056.00   0.49020839   0.01152586
9058.00   0.48210332   0.01076905
9060.00   0.48472145   0.01046138
9062.00   0.49598077   0.01045512
9064.00   0.50093633   0.01045417
9066.00   0.49514595   0.01041255
9068.00   0.49553218   0.01045725
9070.00   0.50436521   0.01053941
9072.00   0.50528216   0.01049453
9074.00   0.49729148   0.01028919
9076.00   0.48698971   0.01006419
9078.00   0.48498043   0.00997629
9080.00   0.48538521   0.01001348
9082.00   0.48296866   0.01003983
9084.00   0.47752556   0.01008124
9086.00   0.47535649   0.01031101
9088.00   0.47917297   0.01065849
9090.00   0.47495857   0.01083940
9092.00   0.46931601   0.01087023
9094.00   0.46125153   0.01095187
9096.00   0.46609449   0.01124868
9098.00   0.46571064   0.01160434
9100.00   0.46047398   0.01182729
9102.00   0.45083746   0.01184281
9104.00   0.45376518   0.01179802
9106.00   0.45638022   0.01157576
9108.00   0.45379779   0.01101894
9110.00   0.44617745   0.01027499
9112.00   0.43615127   0.00973963
9114.00   0.43141270   0.00954392
9116.00   0.43211639   0.00957726
9118.00   0.43637052   0.00962436
9120.00   0.42919692   0.00948985
9122.00   0.42093286   0.00929659
9124.00   0.41935822   0.00923276
9126.00   0.41640258   0.00926293
9128.00   0.41804087   0.00939190
9130.00   0.42361954   0.00954577
9132.00   0.42639399   0.00965673
9134.00   0.42714456   0.00974944
9136.00   0.43190989   0.00981290
9138.00   0.43477520   0.00973690
9140.00   0.43012330   0.00952280
9142.00   0.42979190   0.00934046
9144.00   0.43287966   0.00935450
9146.00   0.44037655   0.00961479
9148.00   0.44443807   0.01000232
9150.00   0.44792414   0.01043311
9152.00   0.45824993   0.01092228
9154.00   0.46391460   0.01136240
9156.00   0.46876585   0.01158126
9158.00   0.47412333   0.01144904
9160.00   0.46569169   0.01109311
9162.00   0.46508741   0.01081569
9164.00   0.46862254   0.01059854
9166.00   0.48283091   0.01040986
9168.00   0.49188673   0.01026219
9170.00   0.49227667   0.01017535
9172.00   0.49397027   0.01018794
9174.00   0.50318593   0.01033103
9176.00   0.51215655   0.01038851
9178.00   0.51548421   0.01026724
9180.00   0.51508522   0.01009350
9182.00   0.52035755   0.01000876
9184.00   0.52119893   0.00997392
9186.00   0.52051359   0.00992387
9188.00   0.51558781   0.00984551
9190.00   0.50669581   0.00977786
9192.00   0.50687146   0.00980112
9194.00   0.51591563   0.00997904
9196.00   0.51775175   0.01027688
9198.00   0.51274490   0.01005375
9200.00   0.50925899   0.00979926
9202.00   0.50586540   0.00973354
9204.00   0.50728655   0.00988576
9206.00   0.51186943   0.01002804
9208.00   0.52140045   0.01009623
9210.00   0.52725106   0.01030112
9212.00   0.52958161   0.01065786
9214.00   0.53032511   0.01097672
9216.00   0.53396434   0.01113118
9218.00   0.53375298   0.01127340
9220.00   0.53837401   0.01140553
9222.00   0.54013085   0.01151063
9224.00   0.54694414   0.01171746
9226.00   0.55830127   0.01195517
9228.00   0.56645709   0.01191408
9230.00   0.55364621   0.01153962
9232.00   0.53914809   0.01109641
9234.00   0.52907771   0.01075109
9236.00   0.51714289   0.01052160
9238.00   0.50734442   0.01038619
9240.00   0.50501770   0.01029640
9242.00   0.50082213   0.01022970
9244.00   0.49471954   0.01025219
9246.00   0.48591658   0.01030982
9248.00   0.47458243   0.01031417
9250.00   0.47007605   0.01030248
9252.00   0.46905640   0.01028161
9254.00   0.46997643   0.01022641
9256.00   0.45867494   0.01010187
9258.00   0.44996190   0.00998631
9260.00   0.45578733   0.00999589
9262.00   0.46288469   0.01003589
9264.00   0.45676413   0.00993766
9266.00   0.44519898   0.00977410
9268.00   0.45005834   0.00975576
9270.00   0.46046495   0.00981934
9272.00   0.45537665   0.00982870
9274.00   0.44967929   0.00987171
9276.00   0.44925332   0.01000869
9278.00   0.45585465   0.01021848
9280.00   0.45136142   0.01035397
9282.00   0.44336256   0.01044385
9284.00   0.44040513   0.01056867
9286.00   0.44405308   0.01076786
9288.00   0.44155729   0.01098281
9290.00   0.44519031   0.01114098
9292.00   0.45687985   0.01131136
9294.00   0.45952532   0.01146500
9296.00   0.45119396   0.01157973
9298.00   0.47036624   0.01231300
9300.00   0.47265801   0.01456648
9302.00   0.45564374   0.01760167
9304.00   0.46497631   0.02055246
9306.00   0.46209028   0.02394247
9308.00   0.45903575   0.02791283
9310.00   0.49424395   0.03048072
9312.00   0.48943201   0.03109908
9314.00   0.46986353   0.03130339
9316.00   0.47960457   0.03196603
9318.00   0.48718402   0.03181711
9320.00   0.45696425   0.03072138
9322.00   0.44475856   0.02983539
9324.00   0.43184653   0.02956474
9326.00   0.46554101   0.02812258
9328.00   0.47431096   0.02511416
9330.00   0.47001851   0.02127214
9332.00   0.46603754   0.01978085
9334.00   0.45449471   0.02057749
9336.00   0.49702039   0.02071881
9338.00   0.49706838   0.02150457
9340.00   0.47521651   0.02167039
9342.00   0.49851766   0.02168646
9344.00   0.50659156   0.02047575
9346.00   0.47464836   0.01741957
9348.00   0.44706640   0.01490807
9350.00   0.44954827   0.01409169
9352.00   0.46300337   0.01462738
9354.00   0.48045310   0.01553622
9356.00   0.49050555   0.01574395
9358.00   0.48381773   0.01500077
9360.00   0.46658370   0.01396261
9362.00   0.45016471   0.01342743
9364.00   0.44386137   0.01343878
9366.00   0.47819138   0.01494056
9368.00   0.48670506   0.02054579
9370.00   0.46823788   0.02885083
9372.00   0.47947297   0.03540136
9374.00   0.45724261   0.03816491
9376.00   0.43950665   0.03970425
9378.00   0.41329813   0.04077819
9380.00   0.45485562   0.03867210
9382.00   0.48920885   0.03223404
9384.00   0.43531945   0.02523134
9386.00   0.46993932   0.02053771
9388.00   0.48029158   0.01743693
9390.00   0.47853175   0.01517796
9392.00   0.47924960   0.01378272
9394.00   0.47964859   0.01347832
9396.00   0.46695781   0.01422476
9398.00   0.45892611   0.01536167
9400.00   0.47061810   0.01620076
9402.00   0.47407126   0.01654365
9404.00   0.46832386   0.01641502
9406.00   0.45914862   0.01570772
9408.00   0.47177419   0.01471389
9410.00   0.48432782   0.01403369
9412.00   0.49222931   0.01440807
9414.00   0.46684992   0.01582004
9416.00   0.46623513   0.01740969
9418.00   0.46846828   0.01844217
9420.00   0.44952500   0.01907188
9422.00   0.43968964   0.01955800
9424.00   0.45952341   0.01967099
9426.00   0.47894177   0.01923276
9428.00   0.46855175   0.01791872
9430.00   0.45568970   0.01615222
9432.00   0.45687678   0.01647329
9434.00   0.41366664   0.01974667
9436.00   0.42416874   0.02473684
9438.00   0.46273983   0.03037907
9440.00   0.49345681   0.03492514
9442.00   0.43646654   0.03480163
9444.00   0.45717371   0.02973106
9446.00   0.43158340   0.02313207
9448.00   0.41754603   0.01863378
9450.00   0.43207034   0.01725564
9452.00   0.42516068   0.01866410
9454.00   0.40880275   0.02180956
9456.00   0.42655411   0.02492785
9458.00   0.43012536   0.02675523
9460.00   0.43805563   0.02654246
9462.00   0.45508611   0.02428195
9464.00   0.45202172   0.02079792
9466.00   0.42692685   0.01759872
9468.00   0.48434269   0.01658235
9470.00   0.44379213   0.01865572
9472.00   0.42394316   0.02237629
9474.00   0.41040090   0.02551830
9476.00   0.44133115   0.02803163
9478.00   0.44856337   0.02999700
9480.00   0.46560809   0.02999264
9482.00   0.46637866   0.02651256
9484.00   0.45914224   0.02134763
9486.00   0.44686022   0.01718584
9488.00   0.44007865   0.01511420
9490.00   0.43274924   0.01438869
9492.00   0.44931161   0.01450072
9494.00   0.48175463   0.01586636
9496.00   0.50132531   0.01898295
9498.00   0.50857192   0.02290003
9500.00   0.48762551   0.02527995
9502.00   0.49344745   0.02498801
9504.00   0.45115998   0.02260420
9506.00   0.42589208   0.01952135
9508.00   0.43191919   0.01684491
9510.00   0.46004379   0.01525683
9512.00   0.46423364   0.01541122
9514.00   0.46344694   0.01739796
9516.00   0.47824636   0.02027119
9518.00   0.50232440   0.02275326
9520.00   0.48603252   0.02385781
9522.00   0.47714511   0.02333041
9524.00   0.47053921   0.02127547
9526.00   0.48944795   0.01869284
9528.00   0.46798185   0.01673548
9530.00   0.47586599   0.01559780
9532.00   0.46947956   0.01493832
9534.00   0.47345924   0.01466919
9536.00   0.49028671   0.01466079
9538.00   0.50379992   0.01477106
9540.00   0.50872833   0.01489351
9542.00   0.53029531   0.01519092
9544.00   0.55338377   0.01594848
9546.00   0.53815961   0.01728159
9548.00   0.49772683   0.01872561
9550.00   0.49594441   0.01991327
9552.00   0.49345836   0.02098326
9554.00   0.47294620   0.02160900
9556.00   0.46685535   0.02078313
9558.00   0.49221057   0.01909276
9560.00   0.48173809   0.01906165
9562.00   0.45677933   0.02176342
9564.00   0.48059583   0.02509682
9566.00   0.46435940   0.02674752
9568.00   0.49034715   0.02658997
9570.00   0.47752762   0.02474516
9572.00   0.47192812   0.02159589
9574.00   0.45599392   0.01834496
9576.00   0.46396694   0.01642322
9578.00   0.47086263   0.01545309
9580.00   0.47283611   0.01476315
9582.00   0.47342911   0.01413104
9584.00   0.46245649   0.01356486
9586.00   0.45987043   0.01351152
9588.00   0.47528449   0.01392508
9590.00   0.48770276   0.01422054
9592.00   0.48394012   0.01399146
9594.00   0.45943329   0.01329566
9596.00   0.45323858   0.01273486
9598.00   0.46287391   0.01257751
9600.00   0.46533683   0.01300310
9602.00   0.45415640   0.01409211
9604.00   0.46498182   0.01541812
9606.00   0.47264799   0.01623488
9608.00   0.46506584   0.01639687
9610.00   0.45429316   0.01598029
9612.00   0.46414804   0.01538891
9614.00   0.47246242   0.01548903
9616.00   0.47938153   0.01645919
9618.00   0.48070669   0.01747082
9620.00   0.47887859   0.01819808
9622.00   0.48818970   0.01859259
9624.00   0.48678610   0.01807952
9626.00   0.48459908   0.01671544
9628.00   0.47979486   0.01515916
9630.00   0.47448471   0.01405857
9632.00   0.46146658   0.01350128
9634.00   0.46248642   0.01341823
9636.00   0.46627364   0.01345295
9638.00   0.47159532   0.01329600
9640.00   0.47073606   0.01298810
9642.00   0.46876940   0.01281733
9644.00   0.47169229   0.01288067
9646.00   0.47991553   0.01300278
9648.00   0.48672378   0.01300491
9650.00   0.48899949   0.01296498
9652.00   0.48084387   0.01308455
9654.00   0.47625065   0.01340592
9656.00   0.46826020   0.01365633
9658.00   0.45928693   0.01385133
9660.00   0.45553276   0.01434428
9662.00   0.44497475   0.01530373
9664.00   0.43214831   0.01633953
9666.00   0.43886483   0.01705618
9668.00   0.45055375   0.01745812
9670.00   0.44785678   0.01748009
9672.00   0.45252967   0.01719530
9674.00   0.45127532   0.01704165
9676.00   0.44948316   0.01765525
9678.00   0.45248851   0.01878189
9680.00   0.46484542   0.01971141
9682.00   0.45420945   0.01981905
9684.00   0.44449988   0.01931552
9686.00   0.43783012   0.01841285
9688.00   0.43765318   0.01740113
9690.00   0.44184729   0.01674655
9692.00   0.44278693   0.01695629
9694.00   0.43150139   0.01783273
9696.00   0.42888093   0.01879416
9698.00   0.43894663   0.01955360
9700.00   0.44605103   0.01988586
9702.00   0.44487438   0.01944212
9704.00   0.46093264   0.01828698
9706.00   0.45813873   0.01727169
9708.00   0.44785467   0.01683309
9710.00   0.45239940   0.01686770
9712.00   0.44701183   0.01758851
9714.00   0.47770476   0.01907510
9716.00   0.48079154   0.02033515
9718.00   0.46392962   0.02076194
9720.00   0.44686127   0.02087923
9722.00   0.44420835   0.02077266
9724.00   0.45316467   0.01979512
9726.00   0.45618784   0.01812040
9728.00   0.47417426   0.01678456
9730.00   0.48810223   0.01643952
9732.00   0.49415442   0.01708680
9734.00   0.48688886   0.01797596
9736.00   0.48821437   0.01853934
9738.00   0.48444009   0.01858819
9740.00   0.46965826   0.01836851
9742.00   0.46507621   0.01798189
9744.00   0.47980404   0.01748276
9746.00   0.48096564   0.01692108
9748.00   0.47830608   0.01636012
9750.00   0.48116973   0.01569391
9752.00   0.48581466   0.01501307
9754.00   0.49163294   0.01447068
9756.00   0.48296034   0.01409643
9758.00   0.48048106   0.01393501
9760.00   0.48642337   0.01382677
9762.00   0.49423113   0.01366522
9764.00   0.49088559   0.01344496
9766.00   0.48223642   0.01313784
9768.00   0.47361290   0.01291379
9770.00   0.47422639   0.01284978
9772.00   0.46857440   0.01281604
9774.00   0.46751675   0.01288054
9776.00   0.48010710   0.01308741
9778.00   0.49469194   0.01333093
9780.00   0.49134675   0.01357147
9782.00   0.48251674   0.01463832
9784.00   0.46569571   0.01737227
9786.00   0.46929571   0.02094175
9788.00   0.46463314   0.02374204
9790.00   0.47963536   0.02559570
9792.00   0.48937479   0.02680712
9794.00   0.48630199   0.02677922
9796.00   0.47740161   0.02529258
9798.00   0.47945154   0.02364732
9800.00   0.47913793   0.02264746
9802.00   0.47294152   0.02175457
9804.00   0.47538805   0.02065212
9806.00   0.47907856   0.01961198
9808.00   0.46852991   0.01897192
9810.00   0.46250042   0.01867764
9812.00   0.46172574   0.01854680
9814.00   0.46047774   0.01829708
9816.00   0.46137896   0.01773657
9818.00   0.46716437   0.01701099
9820.00   0.46347603   0.01643162
9822.00   0.46578300   0.01614796
9824.00   0.48460636   0.01606661
9826.00   0.48894313   0.01589262
9828.00   0.48401776   0.01568152
9830.00   0.48054466   0.01550253
9832.00   0.48888680   0.01533628
9834.00   0.49388921   0.01507215
9836.00   0.48818550   0.01471606
9838.00   0.48771584   0.01442083
9840.00   0.48013893   0.01468660
9842.00   0.47173390   0.01588448
9844.00   0.46687722   0.01752348
9846.00   0.45189980   0.01867957
9848.00   0.43830979   0.01918486
9850.00   0.46911812   0.01924506
9852.00   0.47332191   0.01869669
9854.00   0.47632381   0.01759081
9856.00   0.47098374   0.01646147
9858.00   0.46605849   0.01567500
9860.00   0.46095574   0.01513174
9862.00   0.47138703   0.01515279
9864.00   0.47503892   0.01668848
9866.00   0.44701722   0.02001969
9868.00   0.44929123   0.02371549
9870.00   0.47299173   0.02615554
9872.00   0.46892580   0.02725126
9874.00   0.44686711   0.02717691
9876.00   0.43321604   0.02571359
9878.00   0.45458630   0.02331474
9880.00   0.47291103   0.02110681
9882.00   0.46823612   0.01959596
9884.00   0.45682964   0.01858726
9886.00   0.45317319   0.01832203
9888.00   0.45850646   0.01926755
9890.00   0.46965933   0.02094694
9892.00   0.47893763   0.02235451
9894.00   0.47458729   0.02291047
9896.00   0.46509147   0.02283471
9898.00   0.47642267   0.02221245
9900.00   0.48804614   0.02089306
9902.00   0.46170011   0.01923373
9904.00   0.45156750   0.01814369
9906.00   0.46782157   0.01869792
9908.00   0.46675539   0.02159376
9910.00   0.46328840   0.02536664
9912.00   0.45096138   0.02805080
9914.00   0.43813911   0.02954156
9916.00   0.39989686   0.03013797
9918.00   0.42557561   0.02907849
9920.00   0.47967732   0.02644715
9922.00   0.46997440   0.02355455
9924.00   0.47405323   0.02158908
9926.00   0.46198580   0.02031355
9928.00   0.46448803   0.01957840
9930.00   0.46278206   0.01910590
9932.00   0.47382215   0.01903278
9934.00   0.49215665   0.02026217
9936.00   0.46406871   0.02309158
9938.00   0.48403585   0.02715116
9940.00   0.46182832   0.03199021
9942.00   0.47445595   0.03660687
9944.00   0.44762745   0.03946525
9946.00   0.44735232   0.04036063
9948.00   0.43506780   0.04008716
9950.00   0.44580197   0.03938025
9952.00   0.43744156   0.03859763
9954.00   0.45472208   0.03839119
9956.00   0.48207974   0.03936574
9958.00   0.49082223   0.04042831
9960.00   0.44357437   0.04006167
9962.00   0.44085792   0.03826708
9964.00   0.45069513   0.03612288
9966.00   0.47974348   0.03381763
9968.00   0.45622373   0.03148332
9970.00   0.43894723   0.02978884
9972.00   0.44321266   0.02881474
9974.00   0.45179105   0.02801711
9976.00   0.46714166   0.02690103
9978.00   0.45770192   0.02538173
9980.00   0.46076360   0.02397134
9982.00   0.47158244   0.02280058
9984.00   0.47919011   0.02186327
9986.00   0.48769855   0.02108445
9988.00   0.48559269   0.02045448
9990.00   0.47434744   0.01995979
9992.00   0.47614846   0.02007343
9994.00   0.48588476   0.02095110
9996.00   0.49030653   0.02202989
9998.00   0.47303104   0.02286857
10000.00   0.45788464   0.02342171
10002.00   0.46955919   0.02367407
10004.00   0.48077846   0.02521554
10006.00   0.43726790   0.02971797
10008.00   0.45812806   0.03575295
10010.00   0.47020748   0.04056592
10012.00   0.47687852   0.04345867
10014.00   0.46882081   0.04441947
10016.00   0.52481806   0.04319899
10018.00   0.46305647   0.04013945
10020.00   0.44187999   0.03755741
10022.00   0.43468776   0.03612532
10024.00   0.45196357   0.03538792
10026.00   0.44884607   0.03470382
10028.00   0.45693982   0.03350486
10030.00   0.44733986   0.03123323
10032.00   0.44313535   0.02863964
10034.00   0.44948864   0.02676514
10036.00   0.45710120   0.02601492
10038.00   0.46098864   0.02613918
10040.00   0.47139916   0.02642561
10042.00   0.46925440   0.02642295
10044.00   0.46224913   0.02618062
10046.00   0.46475610   0.02566747
10048.00   0.46654251   0.02467044
10050.00   0.45773020   0.02364224
10052.00   0.45358980   0.02367161
10054.00   0.44099754   0.02512365
10056.00   0.45799649   0.02721815
10058.00   0.46808854   0.02886083
10060.00   0.44279268   0.03003410
10062.00   0.44716907   0.03095947
10064.00   0.46486747   0.03128408
10066.00   0.45775858   0.03087817
10068.00   0.44707254   0.03037092
10070.00   0.44641909   0.02987808
10072.00   0.45855400   0.02939786
10074.00   0.45399675   0.02995948
10076.00   0.42124248   0.03244627
10078.00   0.41462484   0.03596902
10080.00   0.45832607   0.03872166
10082.00   0.50241756   0.04035291
10084.00   0.45105082   0.04071232
10086.00   0.39507768   0.03916105
10088.00   0.43931472   0.03604628
10090.00   0.46879911   0.03290891
10092.00   0.45708784   0.03072152
10094.00   0.41277039   0.02957808
10096.00   0.47254765   0.02998157
10098.00   0.47093681   0.03175430
10100.00   0.46673611   0.03357688
10102.00   0.45379806   0.03466320
10104.00   0.47566304   0.03530882
10106.00   0.48360336   0.03498407
10108.00   0.45426187   0.03343847
10110.00   0.43630585   0.03135442
10112.00   0.45977786   0.02979049
10114.00   0.49359116   0.02938972
10116.00   0.50136226   0.03181407
10118.00   0.47613430   0.03726301
10120.00   0.48184252   0.04283948
10122.00   0.49627540   0.04654568
10124.00   0.46995082   0.04866131
10126.00   0.42189598   0.04905711
10128.00   0.45661387   0.04690311
10130.00   0.49891093   0.04312127
10132.00   0.48887733   0.03965184
10134.00   0.49435404   0.03741365
10136.00   0.48385659   0.03598008
10138.00   0.49375224   0.03528512
10140.00   0.53100842   0.03510722
10142.00   0.53390026   0.03522943
10144.00   0.50635940   0.03588669
10146.00   0.51239288   0.03778106
10148.00   0.50700909   0.04042407
10150.00   0.49929222   0.04290614
10152.00   0.53612518   0.04492900
10154.00   0.50280213   0.04602085
10156.00   0.49101579   0.04594139
10158.00   0.49558747   0.04501482
10160.00   0.45856607   0.04393320
10162.00   0.51781535   0.04368537
10164.00   0.46996450   0.04611873
10166.00   0.47520405   0.05192586
10168.00   0.53203416   0.05762310
10170.00   0.55740863   0.06117847
10172.00   0.51910168   0.06323011
10174.00   0.54783273   0.06282650
10176.00   0.54890954   0.06027727
10178.00   0.49893737   0.05690802
10180.00   0.48623893   0.05372158
10182.00   0.46812534   0.05327747
10184.00   0.43795526   0.05521378
10186.00   0.40513474   0.05712824
10188.00   0.46004224   0.05745096
10190.00   0.41501436   0.05781725
10192.00   0.43882415   0.05714100
10194.00   0.50328684   0.05480560
10196.00   0.48434392   0.05259109
10198.00   0.45250520   0.05127025
10200.00   0.46086958   0.05145434
10202.00   0.46043515   0.05378508
10204.00   0.46353343   0.05844618
10206.00   0.50288469   0.06311813
10208.00   0.49601531   0.06655802
10210.00   0.58408940   0.06822785
10212.00   0.50373381   0.06782877
10214.00   0.48112226   0.06503227
10216.00   0.51495177   0.06106450
10218.00   0.53687036   0.05811353
10220.00   0.56007481   0.05904795
10222.00   0.57428443   0.06079333
10224.00   0.55791473   0.06407827
10226.00   0.49607131   0.06623863
10228.00   0.44393632   0.06632320
10230.00   0.47175437   0.06626003
10232.00   0.54555005   0.06487109
10234.00   0.58308721   0.06113003
10236.00   0.54393041   0.05680522
10238.00   0.49058837   0.05225548
10240.00   0.43193531   0.04935217
10242.00   0.43270072   0.04719560
10244.00   0.47044042   0.04532304
10246.00   0.48669648   0.04504411
10248.00   0.47495732   0.04434274
10250.00   0.50021064   0.04383986
10252.00   0.51236725   0.04359451
10254.00   0.47026384   0.04336790
10256.00   0.44453430   0.04344850
10258.00   0.47348261   0.04383205
10260.00   0.46911576   0.04420198
10262.00   0.45752308   0.04405251
10264.00   0.44447875   0.04632672
10266.00   0.42896038   0.04881248
10268.00   0.45406139   0.05104047
10270.00   0.43264878   0.05203273
10272.00   0.43778881   0.05395262
10274.00   0.44754201   0.05402204
10276.00   0.40906063   0.05488517
10278.00   0.49638376   0.06076517
10280.00   0.41767913   0.07557969
10282.00   0.32270935   0.09110239
10284.00   0.36177564   0.10276972
10286.00   0.38082698   0.11061020
10288.00   0.33881485   0.11640084
10290.00   0.42563015   0.11618146
10292.00   0.51214284   0.11164067
10294.00   0.42999697   0.10608537
10296.00   0.42873195   0.10057211
10298.00   0.47622940   0.09811831
10300.00   0.51523459   0.09316146
10302.00   0.29953954   0.08694921
10304.00   0.30069128   0.08238929
10306.00   0.42596108   0.08096416
10308.00   0.47112727   0.08043046
10310.00   0.47160614   0.07865015
10312.00   0.45787731   0.07728740
10314.00   0.49164185   0.07370493
10316.00   0.49210048   0.06984804
10318.00   0.51151407   0.06671372
10320.00   0.38602135   0.06489833
10322.00   0.36012325   0.06397770
10324.00   0.43091545   0.06388797
10326.00   0.42816219   0.06389474
10328.00   0.52277529   0.06363635
10330.00   0.44659537   0.06403110
10332.00   0.44155806   0.06272264
10334.00   0.36455953   0.06317684
10336.00   0.33529809   0.06615474
10338.00   0.35888317   0.06626219
10340.00   0.38049662   0.07002472
10342.00   0.35436288   0.07502653
10344.00   0.41553602   0.07977531
10346.00   0.40527093   0.08322948
10348.00   0.40238765   0.08630453
10350.00   0.38798833   0.08714015
10352.00   0.39765778   0.08547737
10354.00   0.42701891   0.08230077
10356.00   0.35204300   0.07921053
10358.00   0.35020629   0.07713875
10360.00   0.33093104   0.07541385
10362.00   0.29023254   0.07564788
10364.00   0.34187198   0.07922337
10366.00   0.35759354   0.08857717
10368.00   0.41100341   0.10268631
10370.00   0.38457188   0.11218213
10372.00   0.28567109   0.11745729
10374.00   0.26796502   0.11835879
10376.00   0.37992892   0.11579515
10378.00   0.37912858   0.10985366
10380.00   0.38475087   0.10124168
10382.00   0.39694116   0.09348989
10384.00   0.30809563   0.08967125
10386.00   0.39839262   0.08733022
10388.00   0.37492052   0.08590783
10390.00   0.40995350   0.08883384
10392.00   0.48201916   0.09470436
10394.00   0.54111505   0.09935448
10396.00   0.51876473   0.10166661
10398.00   0.42621943   0.10279582
10400.00   0.39275828   0.09781799
10402.00   0.36948079   0.09055215
10404.00   0.36950314   0.08660495
10406.00   0.33449662   0.08573224
10408.00   0.35388365   0.08353364
10410.00   0.34090626   0.08805781
10412.00   0.39125460   0.09936917
10414.00   0.47146863   0.11315524
10416.00   0.45878193   0.12064137
10418.00   0.28069109   0.12324228
10420.00   0.17055283   0.12220881
10422.00   0.26358235   0.11851781
10424.00   0.32680839   0.10933928
10426.00   0.33731180   0.10167748
10428.00   0.32338592   0.09475362
10430.00   0.35430884   0.08986458
10432.00   0.33887964   0.08412872
10434.00   0.30849928   0.08154679
10436.00   0.33696845   0.07970425
10438.00   0.33168310   0.07602427
10440.00   0.27602631   0.07359111
10442.00   0.34159940   0.07328373
10444.00   0.37900314   0.07616454
10446.00   0.41020691   0.08011872
10448.00   0.37786776   0.08335134
10450.00   0.29710934   0.08379424
